COUNTER;INTERPOLATED;RAW_CQ;AF3;F7;F3;FC5;T7;P7;O1;O2;P8;T8;FC6;F4;F8;AF4;GYROX;GYROY;TIMESTAMP;ES_TIMESTAMP;FUNC_ID;FUNC_VALUE;MARKER;SYNC_SIGNAL
50;0;0;4354,35897435897;4220;4356,41025641026;4400;4369,74358974359;4481,53846153846;4601,02564102564;4024,10256410256;4436,41025641026;4396,92307692308;4599,48717948718;4205,64102564103;4188,71794871795;4990,76923076923;1594;1740;71,84;14,5281105041504;0;0;0;0
51;0;0;4347,69230769231;4215,89743589744;4348,71794871795;4397,94871794872;4367,69230769231;4480;4596,41025641026;4024,10256410256;4434,8717948718;4384,61538461538;4595,89743589744;4203,58974358974;4183,58974358974;4980,51282051282;1592;1739;71,848;14,5281105041504;0;0;0;0
52;0;0;4341,02564102564;4206,15384615385;4348,20512820513;4394,35897435897;4364,10256410256;4476,92307692308;4590,76923076923;4016,41025641026;4432,82051282051;4369,74358974359;4586,15384615385;4200;4173,33333333333;4972,30769230769;1594;1740;71,856;14,5281105041504;0;0;0;0
53;0;0;4335,89743589744;4203,58974358974;4349,74358974359;4397,4358974359;4362,5641025641;4480;4594,8717948718;4010,25641025641;4430,25641025641;4364,10256410256;4576,41025641026;4200;4170,76923076923;4969,23076923077;1593;1737;71,864;14,5281105041504;0;0;0;0
54;0;0;4335,38461538462;4205,64102564103;4345,12820512821;4399,48717948718;4365,64102564103;4485,64102564103;4600,51282051282;4014,35897435898;4431,28205128205;4363,58974358974;4571,79487179487;4202,5641025641;4170,25641025641;4964,10256410256;1593;1737;71,872;14,5281105041504;0;0;0;0
55;0;0;4331,79487179487;4201,53846153846;4342,05128205128;4398,46153846154;4367,17948717949;4487,69230769231;4602,5641025641;4020;4432,82051282051;4355,89743589744;4569,23076923077;4196,41025641026;4166,15384615385;4956,41025641026;1594;1737;71,88;14,5281105041504;0;0;0;0
56;0;0;4326,66666666667;4200,51282051282;4347,69230769231;4400,51282051282;4367,69230769231;4491,79487179487;4607,69230769231;4024,10256410256;4437,4358974359;4353,84615384615;4571,79487179487;4199,48717948718;4168,71794871795;4960,51282051282;1594;1738;71,887;14,5281105041504;0;0;0;0
57;0;0;4329,74358974359;4203,07692307692;4351,79487179487;4398,46153846154;4367,69230769231;4493,33333333333;4610,25641025641;4026,15384615385;4441,53846153846;4362,5641025641;4574,8717948718;4212,82051282051;4172,30769230769;4968,20512820513;1595;1738;71,895;14,5281105041504;0;0;0;0
58;0;0;4335,89743589744;4202,05128205128;4349,74358974359;4394,35897435897;4366,66666666667;4488,20512820513;4604,10256410256;4024,10256410256;4436,41025641026;4360,51282051282;4570,25641025641;4214,8717948718;4169,74358974359;4965,64102564103;1594;1739;71,903;14,5281105041504;0;0;0;0
59;0;0;4338,97435897436;4202,05128205128;4348,20512820513;4396,41025641026;4365,12820512821;4484,10256410256;4596,41025641026;4015,89743589744;4428,71794871795;4351,79487179487;4566,66666666667;4209,23076923077;4171,28205128205;4965,64102564103;1595;1738;71,91;14,5281105041504;0;0;0;0
60;0;0;4343,07692307692;4206,15384615385;4353,84615384615;4402,05128205128;4366,15384615385;4481,53846153846;4593,33333333333;4012,30769230769;4432,30769230769;4354,35897435897;4569,74358974359;4213,33333333333;4174,35897435897;4970,76923076923;1593;1739;71,919;14,5281105041504;0;0;0;0
61;0;0;4346,15384615385;4209,74358974359;4358,46153846154;4406,66666666667;4366,15384615385;4480,51282051282;4591,79487179487;4014,35897435898;4436,41025641026;4354,35897435897;4566,66666666667;4220;4168,20512820513;4964,10256410256;1594;1740;71,926;14,5281105041504;0;0;0;0
62;0;0;4343,58974358974;4206,66666666667;4351,28205128205;4404,10256410256;4368,71794871795;4480;4593,33333333333;4014,8717948718;4431,28205128205;4344,61538461538;4558,46153846154;4216,41025641026;4160,51282051282;4954,35897435897;1592;1740;71,933;14,5281105041504;0;0;0;0
63;0;0;4336,92307692308;4203,58974358974;4341,02564102564;4395,89743589744;4374,35897435897;4477,4358974359;4595,89743589744;4014,8717948718;4430,25641025641;4342,05128205128;4554,35897435897;4210,76923076923;4162,5641025641;4960;1593;1741;71,942;14,5281105041504;0;0;0;0
64;0;466;4328,20512820513;4204,10256410256;4335,38461538462;4395,89743589744;4373,33333333333;4471,79487179487;4592,30769230769;4012,82051282051;4429,23076923077;4334,35897435897;4547,69230769231;4209,23076923077;4162,5641025641;4961,02564102564;1592;1740;71,951;14,5281105041504;0;0;0;0
65;0;410;4324,61538461538;4204,10256410256;4335,38461538462;4402,05128205128;4368,20512820513;4471,28205128205;4587,17948717949;4010,25641025641;4426,15384615385;4316,41025641026;4538,46153846154;4211,28205128205;4157,4358974359;4947,17948717949;1591;1741;71,959;14,5281105041504;0;0;0;0
66;0;497;4332,30769230769;4206,66666666667;4343,58974358974;4406,15384615385;4369,23076923077;4476,41025641026;4591,79487179487;4011,79487179487;4428,71794871795;4316,92307692308;4539,48717948718;4218,46153846154;4162,5641025641;4949,74358974359;1592;1741;71,966;15,0285406112671;0;0;0;0
67;0;504;4332,82051282051;4207,69230769231;4343,07692307692;4403,07692307692;4369,23076923077;4474,35897435897;4592,82051282051;4012,30769230769;4429,23076923077;4324,10256410256;4541,02564102564;4221,53846153846;4167,17948717949;4961,02564102564;1593;1741;71,974;15,0285406112671;0;0;0;0
68;0;502;4319,48717948718;4196,41025641026;4325,64102564103;4390,76923076923;4362,05128205128;4466,15384615385;4583,58974358974;4005,64102564103;4424,10256410256;4304,10256410256;4528,20512820513;4215,89743589744;4157,94871794872;4950,76923076923;1592;1740;71,983;15,0285406112671;0;0;0;0
69;0;486;4314,8717948718;4188,20512820513;4318,46153846154;4388,20512820513;4358,97435897436;4466,15384615385;4577,4358974359;4001,02564102564;4422,05128205128;4281,02564102564;4513,33333333333;4212,82051282051;4151,28205128205;4937,94871794872;1592;1741;71,989;15,0285406112671;0;0;0;0
70;0;456;4323,58974358974;4194,8717948718;4328,20512820513;4396,92307692308;4360,51282051282;4469,74358974359;4578,97435897436;4000;4424,10256410256;4278,97435897436;4507,69230769231;4216,92307692308;4154,35897435897;4944,61538461539;1593;1740;71,997;15,0285406112671;0;0;0;0
71;0;383;4324,61538461538;4195,38461538462;4327,69230769231;4394,8717948718;4358,46153846154;4468,71794871795;4580;4003,58974358974;4424,10256410256;4280;4506,66666666667;4217,4358974359;4157,94871794872;4951,28205128205;1592;1741;72,005;15,0285406112671;0;0;0;0
72;0;383;4316,92307692308;4184,10256410256;4322,05128205128;4386,66666666667;4354,35897435897;4469,23076923077;4584,61538461538;4010,76923076923;4425,12820512821;4274,35897435897;4502,05128205128;4217,4358974359;4159,48717948718;4953,33333333333;1594;1740;72,012;15,0285406112671;0;0;0;0
73;0;526;4320,51282051282;4181,02564102564;4328,20512820513;4390,76923076923;4353,33333333333;4474,35897435897;4589,74358974359;4011,79487179487;4428,71794871795;4272,30769230769;4501,02564102564;4227,69230769231;4164,61538461538;4960;1593;1740;72,02;15,0285406112671;0;0;0;0
74;0;465;4335,89743589744;4191,28205128205;4339,48717948718;4398,46153846154;4356,41025641026;4477,94871794872;4590,76923076923;4012,30769230769;4430,25641025641;4282,5641025641;4507,69230769231;4238,46153846154;4174,8717948718;4971,28205128205;1594;1740;72,028;15,0285406112671;0;0;0;0
75;0;452;4352,30769230769;4202,05128205128;4346,15384615385;4397,4358974359;4358,46153846154;4476,92307692308;4586,66666666667;4012,30769230769;4429,74358974359;4302,05128205128;4518,46153846154;4243,58974358974;4188,20512820513;4988,20512820513;1594;1739;72,036;15,0285406112671;0;0;0;0
76;0;352;4374,35897435897;4208,20512820513;4350,76923076923;4402,05128205128;4356,41025641026;4466,66666666667;4580,51282051282;4007,17948717949;4427,69230769231;4314,8717948718;4528,20512820513;4251,28205128205;4200;5006,15384615385;1594;1740;72,043;15,0285406112671;0;0;0;0
77;0;395;4402,05128205128;4213,33333333333;4358,46153846154;4409,74358974359;4353,84615384615;4455,89743589744;4578,46153846154;4007,17948717949;4424,10256410256;4320;4533,33333333333;4258,97435897436;4210,25641025641;5021,02564102564;1596;1739;72,051;15,0285406112671;0;0;0;0
78;0;465;4424,61538461538;4217,94871794872;4369,23076923077;4412,82051282051;4352,82051282051;4452,30769230769;4582,05128205128;4011,79487179487;4421,02564102564;4332,30769230769;4539,48717948718;4263,58974358974;4218,46153846154;5033,84615384615;1595;1739;72,058;15,0285406112671;0;0;0;0
79;0;452;4445,64102564103;4227,17948717949;4381,53846153846;4414,8717948718;4354,8717948718;4450,25641025641;4586,15384615385;4010,76923076923;4424,10256410256;4349,23076923077;4549,23076923077;4272,30769230769;4227,17948717949;5047,69230769231;1595;1739;72,066;15,0285406112671;0;0;0;0
80;0;352;4464,61538461538;4238,97435897436;4386,66666666667;4417,94871794872;4354,35897435897;4442,05128205128;4583,58974358974;4008,71794871795;4425,64102564103;4364,10256410256;4563,07692307692;4284,10256410256;4239,48717948718;5062,05128205128;1594;1739;72,075;15,0285406112671;0;0;0;0
81;0;395;4464,61538461538;4238,97435897436;4382,05128205128;4415,89743589744;4350,76923076923;4441,53846153846;4580;4009,74358974359;4422,5641025641;4375,89743589744;4572,30769230769;4289,74358974359;4247,69230769231;5068,20512820513;1595;1738;72,083;15,0285406112671;0;0;0;0
82;0;465;4446,66666666667;4229,74358974359;4375,89743589744;4411,28205128205;4351,28205128205;4447,69230769231;4582,05128205128;4008,71794871795;4424,10256410256;4381,02564102564;4572,82051282051;4291,79487179487;4245,12820512821;5061,02564102564;1593;1738;72,091;15,0285406112671;0;0;0;0
83;0;452;4422,5641025641;4222,05128205128;4369,23076923077;4408,20512820513;4354,8717948718;4452,30769230769;4587,69230769231;4008,71794871795;4423,58974358974;4375,89743589744;4573,84615384615;4290,25641025641;4235,89743589744;5049,74358974359;1594;1738;72,098;15,0285406112671;0;0;0;0
84;0;352;4400;4215,89743589744;4357,4358974359;4405,12820512821;4354,35897435897;4454,35897435897;4584,10256410256;4007,69230769231;4420,51282051282;4361,53846153846;4565,12820512821;4283,58974358974;4219,48717948718;5030,76923076923;1593;1737;72,106;15,0285406112671;0;0;0;0
85;0;395;4382,05128205128;4205,64102564103;4345,64102564103;4400;4351,79487179487;4454,35897435897;4576,41025641026;4003,07692307692;4416,92307692308;4336,92307692308;4541,53846153846;4276,41025641026;4196,41025641026;5002,5641025641;1593;1738;72,114;15,0285406112671;0;0;0;0
86;0;465;4365,12820512821;4198,97435897436;4338,97435897436;4397,4358974359;4353,84615384615;4454,35897435897;4577,94871794872;4001,02564102564;4413,84615384615;4307,69230769231;4522,5641025641;4274,35897435897;4176,92307692308;4982,05128205128;1593;1737;72,122;15,0285406112671;0;0;0;0
87;0;452;4350,76923076923;4196,92307692308;4336,41025641026;4394,35897435897;4355,89743589744;4456,41025641026;4581,53846153846;3998,97435897436;4412,30769230769;4286,66666666667;4512,82051282051;4275,89743589744;4168,20512820513;4972,30769230769;1593;1738;72,129;15,0285406112671;0;0;0;0
88;0;352;4345,64102564103;4192,30769230769;4333,84615384615;4392,30769230769;4349,74358974359;4459,48717948718;4580,51282051282;3999,48717948718;4411,79487179487;4276,41025641026;4498,97435897436;4276,41025641026;4165,12820512821;4965,64102564103;1593;1737;72,137;15,0285406112671;0;0;0;0
89;0;395;4343,58974358974;4187,17948717949;4329,74358974359;4390,25641025641;4337,94871794872;4465,12820512821;4583,07692307692;4001,02564102564;4410,25641025641;4266,66666666667;4485,12820512821;4276,92307692308;4161,53846153846;4961,02564102564;1592;1738;72,145;15,0285406112671;0;0;0;0
90;0;465;4336,41025641026;4184,10256410256;4328,20512820513;4385,12820512821;4326,15384615385;4470,25641025641;4588,20512820513;4002,05128205128;4412,30769230769;4252,30769230769;4478,46153846154;4282,5641025641;4156,41025641026;4953,84615384615;1593;1737;72,153;15,2162017822266;0;0;0;0
91;0;452;4333,84615384615;4184,61538461538;4332,82051282051;4385,12820512821;4315,89743589744;4470,25641025641;4588,71794871795;4005,64102564103;4419,48717948718;4246,15384615385;4474,8717948718;4289,23076923077;4156,41025641026;4955,38461538462;1593;1737;72,16;15,2162017822266;0;0;0;0
92;0;352;4334,35897435897;4183,07692307692;4331,28205128205;4387,69230769231;4303,07692307692;4464,61538461538;4583,07692307692;4008,20512820513;4422,05128205128;4242,05128205128;4472,30769230769;4289,74358974359;4159,48717948718;4963,58974358974;1594;1737;72,168;15,2162017822266;0;0;0;0
93;0;395;4326,15384615385;4176,92307692308;4323,58974358974;4385,64102564103;4292,82051282051;4457,4358974359;4577,94871794872;4003,58974358974;4418,97435897436;4231,79487179487;4466,15384615385;4289,74358974359;4157,94871794872;4957,94871794872;1594;1736;72,176;15,2162017822266;0;0;0;0
94;0;465;4318,97435897436;4180,51282051282;4325,64102564103;4385,12820512821;4293,33333333333;4453,33333333333;4577,94871794872;4001,02564102564;4418,46153846154;4224,10256410256;4458,97435897436;4295,38461538462;4155,38461538462;4947,69230769231;1594;1736;72,184;15,2162017822266;0;0;0;0
95;0;452;4318,46153846154;4185,64102564103;4328,71794871795;4386,15384615385;4294,8717948718;4455,89743589744;4583,07692307692;4006,15384615385;4422,5641025641;4220,51282051282;4455,38461538462;4296,41025641026;4149,23076923077;4944,10256410256;1595;1736;72,192;15,2162017822266;0;0;0;0
96;0;352;4315,38461538462;4180,51282051282;4321,53846153846;4381,02564102564;4289,23076923077;4460;4587,69230769231;4011,28205128205;4425,64102564103;4212,82051282051;4451,28205128205;4292,82051282051;4145,12820512821;4945,64102564103;1595;1736;72,199;15,2162017822266;0;0;0;0
97;0;395;4309,23076923077;4173,33333333333;4320;4378,97435897436;4288,20512820513;4461,53846153846;4588,20512820513;4012,30769230769;4424,10256410256;4203,07692307692;4443,58974358974;4291,28205128205;4148,71794871795;4949,74358974359;1595;1735;72,208;15,2162017822266;0;0;0;0
98;0;465;4305,64102564103;4170,76923076923;4323,58974358974;4384,61538461538;4291,79487179487;4462,05128205128;4585,64102564103;4009,23076923077;4422,05128205128;4196,92307692308;4438,46153846154;4289,23076923077;4147,17948717949;4946,15384615385;1595;1734;72,215;15,2162017822266;0;0;0;0
99;0;452;4304,61538461538;4171,28205128205;4317,4358974359;4386,15384615385;4292,82051282051;4469,23076923077;4589,23076923077;4010,25641025641;4427,17948717949;4194,8717948718;4436,92307692308;4288,20512820513;4138,97435897436;4935,38461538462;1594;1734;72,223;15,2162017822266;0;0;0;0
100;0;352;4303,58974358974;4173,84615384615;4308,71794871795;4383,58974358974;4294,35897435897;4476,41025641026;4595,38461538462;4015,89743589744;4430,25641025641;4190,25641025641;4429,74358974359;4288,71794871795;4136,41025641026;4930,76923076923;1596;1734;72,23;15,2162017822266;0;0;0;0
101;0;395;4297,4358974359;4171,28205128205;4307,17948717949;4382,05128205128;4298,46153846154;4471,79487179487;4589,74358974359;4011,79487179487;4425,12820512821;4181,53846153846;4421,02564102564;4284,61538461538;4134,8717948718;4926,66666666667;1594;1734;72,241;15,2162017822266;0;0;0;0
102;0;465;4291,28205128205;4168,20512820513;4309,74358974359;4381,02564102564;4297,4358974359;4462,5641025641;4584,61538461538;4004,10256410256;4423,58974358974;4175,89743589744;4422,5641025641;4282,5641025641;4133,33333333333;4924,61538461539;1595;1734;72,247;15,2162017822266;0;0;0;0
103;0;452;4295,38461538462;4171,79487179487;4313,33333333333;4378,97435897436;4294,35897435897;4459,48717948718;4589,23076923077;4004,61538461539;4427,69230769231;4180,51282051282;4426,66666666667;4288,71794871795;4139,48717948718;4933,33333333333;1594;1734;72,255;15,2162017822266;0;0;0;0
104;0;352;4303,58974358974;4174,8717948718;4313,84615384615;4378,46153846154;4296,92307692308;4458,97435897436;4589,23076923077;4006,66666666667;4426,66666666667;4184,10256410256;4424,61538461538;4292,30769230769;4144,10256410256;4937,94871794872;1594;1735;72,263;15,2162017822266;0;0;0;0
105;0;395;4303,07692307692;4175,89743589744;4310,25641025641;4379,48717948718;4297,4358974359;4460;4586,66666666667;4006,66666666667;4423,58974358974;4179,48717948718;4419,48717948718;4289,23076923077;4142,05128205128;4933,84615384615;1594;1733;72,269;15,2162017822266;0;0;0;0
106;0;465;4302,05128205128;4180,51282051282;4314,8717948718;4381,02564102564;4297,4358974359;4466,15384615385;4595,38461538462;4010,76923076923;4426,15384615385;4180;4422,05128205128;4291,28205128205;4142,05128205128;4933,84615384615;1593;1735;72,278;15,2162017822266;0;0;0;0
107;0;452;4304,10256410256;4181,02564102564;4323,07692307692;4378,46153846154;4301,53846153846;4470,76923076923;4599,48717948718;4014,35897435898;4428,20512820513;4186,15384615385;4427,69230769231;4296,92307692308;4146,66666666667;4935,89743589744;1593;1734;72,286;15,2162017822266;0;0;0;0
108;0;352;4299,48717948718;4175,89743589744;4318,46153846154;4378,46153846154;4302,5641025641;4467,69230769231;4590,25641025641;4011,28205128205;4426,15384615385;4184,61538461538;4427,69230769231;4296,92307692308;4146,15384615385;4936,92307692308;1593;1734;72,293;15,2162017822266;0;0;0;0
109;0;395;4293,84615384615;4174,8717948718;4312,82051282051;4381,53846153846;4303,07692307692;4467,17948717949;4585,12820512821;4008,71794871795;4425,12820512821;4183,07692307692;4424,61538461538;4294,8717948718;4142,5641025641;4936,92307692308;1594;1735;72,301;15,2162017822266;0;0;0;0
110;0;465;4290,76923076923;4173,84615384615;4311,28205128205;4374,35897435897;4303,07692307692;4465,64102564103;4580,51282051282;4004,10256410256;4424,61538461538;4176,92307692308;4416,92307692308;4290,25641025641;4137,4358974359;4930,25641025641;1593;1734;72,309;15,3725862503052;0;0;0;0
111;0;452;4284,61538461538;4166,15384615385;4297,94871794872;4366,15384615385;4299,48717948718;4452,82051282051;4568,20512820513;3992,82051282051;4419,48717948718;4153,33333333333;4403,58974358974;4281,53846153846;4126,66666666667;4915,89743589744;1593;1735;72,316;15,3725862503052;0;0;0;0
112;0;352;4288,20512820513;4167,69230769231;4293,84615384615;4370,76923076923;4298,97435897436;4447,69230769231;4566,15384615385;3993,33333333333;4419,48717948718;4142,5641025641;4398,97435897436;4283,58974358974;4129,74358974359;4919,48717948718;1593;1734;72,324;15,3725862503052;0;0;0;0
113;0;395;4303,07692307692;4178,46153846154;4311,79487179487;4375,38461538462;4302,5641025641;4459,48717948718;4577,4358974359;4005,64102564103;4425,12820512821;4165,64102564103;4412,30769230769;4296,92307692308;4151,28205128205;4944,61538461539;1594;1734;72,333;15,3725862503052;0;0;0;0
114;0;465;4305,12820512821;4182,5641025641;4319,48717948718;4373,33333333333;4304,10256410256;4462,05128205128;4583,07692307692;4007,17948717949;4423,58974358974;4180,51282051282;4421,53846153846;4302,5641025641;4158,97435897436;4953,84615384615;1593;1734;72,341;15,3725862503052;0;0;0;0
115;0;452;4295,38461538462;4176,41025641026;4309,74358974359;4369,74358974359;4303,58974358974;4454,35897435897;4582,05128205128;4003,07692307692;4420,51282051282;4166,15384615385;4413,33333333333;4297,4358974359;4143,07692307692;4935,38461538462;1593;1736;72,349;15,3725862503052;0;0;0;0
116;0;352;4293,33333333333;4171,79487179487;4308,71794871795;4371,28205128205;4303,58974358974;4461,02564102564;4586,66666666667;4007,69230769231;4424,61538461538;4165,12820512821;4409,23076923077;4295,89743589744;4138,97435897436;4929,23076923077;1594;1735;72,356;15,3725862503052;0;0;0;0
117;0;395;4301,53846153846;4176,92307692308;4317,94871794872;4374,8717948718;4306,15384615385;4474,35897435897;4593,33333333333;4015,38461538462;4432,30769230769;4186,66666666667;4423,07692307692;4300,51282051282;4155,89743589744;4947,69230769231;1593;1737;72,364;15,3725862503052;0;0;0;0
118;0;465;4306,15384615385;4181,53846153846;4317,4358974359;4377,94871794872;4311,28205128205;4473,33333333333;4591,79487179487;4013,33333333333;4434,8717948718;4195,38461538462;4434,35897435897;4305,12820512821;4158,97435897436;4950,76923076923;1594;1735;72,372;15,3725862503052;0;0;0;0
119;0;452;4297,94871794872;4176,41025641026;4310,76923076923;4376,92307692308;4311,28205128205;4462,5641025641;4586,66666666667;4004,61538461539;4430,76923076923;4185,12820512821;4427,69230769231;4301,02564102564;4145,12820512821;4933,84615384615;1592;1736;72,379;15,3725862503052;0;0;0;0
120;0;352;4281,53846153846;4168,20512820513;4305,12820512821;4369,74358974359;4309,74358974359;4458,46153846154;4582,5641025641;3998,97435897436;4423,58974358974;4170,25641025641;4415,38461538462;4290,76923076923;4137,4358974359;4923,58974358974;1593;1737;72,388;15,3725862503052;0;0;0;0
121;0;395;4275,38461538462;4163,58974358974;4300,51282051282;4363,07692307692;4308,71794871795;4456,92307692308;4576,41025641026;3995,89743589744;4416,92307692308;4156,41025641026;4404,61538461538;4286,66666666667;4132,82051282051;4918,46153846154;1592;1736;72,396;15,3725862503052;0;0;0;0
122;0;465;4285,12820512821;4165,64102564103;4303,58974358974;4365,12820512821;4305,12820512821;4456,92307692308;4576,41025641026;3995,89743589744;4417,4358974359;4149,74358974359;4400,51282051282;4293,84615384615;4130,76923076923;4921,53846153846;1592;1737;72,402;15,3725862503052;0;0;0;0
123;0;452;4293,84615384615;4169,74358974359;4311,79487179487;4371,79487179487;4306,66666666667;4460,51282051282;4583,58974358974;4001,53846153846;4424,10256410256;4152,82051282051;4403,07692307692;4301,53846153846;4140,51282051282;4933,33333333333;1592;1736;72,411;15,3725862503052;0;0;0;0
124;0;352;4295,89743589744;4172,30769230769;4311,79487179487;4375,89743589744;4310,76923076923;4463,58974358974;4586,66666666667;4008,71794871795;4428,20512820513;4163,58974358974;4408,71794871795;4305,64102564103;4150,25641025641;4941,02564102564;1592;1736;72,418;15,3725862503052;0;0;0;0
125;0;395;4300;4174,8717948718;4309,23076923077;4374,35897435897;4313,33333333333;4466,15384615385;4587,17948717949;4012,30769230769;4431,28205128205;4175,89743589744;4417,4358974359;4308,71794871795;4152,82051282051;4943,07692307692;1592;1735;72,426;15,3725862503052;0;0;0;0
126;0;465;4306,66666666667;4179,48717948718;4314,35897435897;4371,28205128205;4315,89743589744;4469,74358974359;4590,76923076923;4014,8717948718;4435,89743589744;4185,12820512821;4428,71794871795;4312,82051282051;4153,84615384615;4944,61538461539;1592;1737;72,435;15,3725862503052;0;0;0;0
127;0;452;4308,20512820513;4178,97435897436;4318,46153846154;4372,30769230769;4318,97435897436;4472,30769230769;4593,33333333333;4015,38461538462;4435,89743589744;4193,33333333333;4433,84615384615;4314,35897435897;4151,79487179487;4946,66666666667;1592;1736;72,443;15,3725862503052;0;0;0;0
128;0;352;4299,48717948718;4171,28205128205;4315,38461538462;4371,79487179487;4317,4358974359;4468,71794871795;4591,28205128205;4010,76923076923;4432,30769230769;4193,33333333333;4430,25641025641;4308,71794871795;4146,15384615385;4941,53846153846;1591;1736;72,449;15,3725862503052;0;0;0;0
0;0;466;4297,4358974359;4168,20512820513;4316,41025641026;4367,69230769231;4315,38461538462;4466,15384615385;4590,25641025641;4011,79487179487;4432,82051282051;4186,66666666667;4429,23076923077;4306,15384615385;4145,12820512821;4940;1593;1734;72,458;15,3725862503052;0;0;0;0
1;0;410;4311,79487179487;4177,4358974359;4322,05128205128;4372,82051282051;4318,97435897436;4471,28205128205;4597,4358974359;4017,94871794872;4432,82051282051;4191,28205128205;4433,84615384615;4312,30769230769;4150,25641025641;4945,12820512821;1591;1734;72,466;15,5289707183838;0;0;0;0
2;0;497;4318,46153846154;4187,17948717949;4324,10256410256;4381,53846153846;4322,5641025641;4473,33333333333;4602,5641025641;4016,41025641026;4427,17948717949;4200,51282051282;4438,46153846154;4314,35897435897;4152,30769230769;4943,58974358974;1593;1736;72,473;15,5289707183838;0;0;0;0
3;0;504;4311,28205128205;4184,61538461538;4324,10256410256;4380,51282051282;4324,10256410256;4470,25641025641;4602,05128205128;4011,28205128205;4423,58974358974;4197,94871794872;4437,94871794872;4312,82051282051;4149,23076923077;4941,02564102564;1592;1736;72,481;15,5289707183838;0;0;0;0
4;0;502;4302,5641025641;4175,89743589744;4323,58974358974;4376,92307692308;4323,07692307692;4469,74358974359;4598,97435897436;4007,69230769231;4422,05128205128;4192,30769230769;4432,82051282051;4311,79487179487;4144,10256410256;4943,07692307692;1592;1738;72,488;15,5289707183838;0;0;0;0
5;0;486;4296,92307692308;4173,84615384615;4318,46153846154;4373,84615384615;4321,02564102564;4470,25641025641;4592,82051282051;4005,12820512821;4418,97435897436;4186,66666666667;4426,66666666667;4310,25641025641;4136,92307692308;4936,41025641026;1593;1737;72,497;15,5289707183838;0;0;0;0
6;0;456;4297,4358974359;4175,89743589744;4313,33333333333;4371,79487179487;4320,51282051282;4464,61538461538;4584,61538461538;4001,02564102564;4420,51282051282;4175,89743589744;4419,48717948718;4309,23076923077;4134,8717948718;4927,17948717949;1593;1738;72,504;15,5289707183838;0;0;0;0
7;0;383;4294,8717948718;4171,28205128205;4307,17948717949;4369,23076923077;4319,48717948718;4457,94871794872;4580;3998,46153846154;4425,64102564103;4170,76923076923;4416,92307692308;4307,69230769231;4136,92307692308;4930,76923076923;1593;1739;72,513;15,5289707183838;0;0;0;0
8;0;383;4288,20512820513;4168,20512820513;4303,07692307692;4372,30769230769;4318,46153846154;4459,48717948718;4581,02564102564;4000,51282051282;4429,23076923077;4176,41025641026;4418,97435897436;4308,20512820513;4140;4934,8717948718;1593;1741;72,52;15,5289707183838;0;0;0;0
9;0;527;4289,74358974359;4172,30769230769;4300,51282051282;4374,8717948718;4318,97435897436;4462,05128205128;4580;4002,05128205128;4429,74358974359;4178,97435897436;4421,53846153846;4309,74358974359;4144,10256410256;4936,92307692308;1594;1740;72,528;15,5289707183838;0;0;0;0
10;0;465;4293,84615384615;4170,76923076923;4300;4369,74358974359;4321,02564102564;4465,12820512821;4582,05128205128;4004,10256410256;4427,17948717949;4176,41025641026;4422,5641025641;4310,25641025641;4146,15384615385;4939,48717948718;1593;1742;72,535;15,5289707183838;0;0;0;0
11;0;452;4298,46153846154;4170,25641025641;4307,69230769231;4369,23076923077;4323,58974358974;4474,35897435897;4592,30769230769;4012,30769230769;4430,25641025641;4185,64102564103;4426,66666666667;4313,33333333333;4147,17948717949;4938,46153846154;1594;1741;72,543;15,5289707183838;0;0;0;0
12;0;352;4305,64102564103;4174,8717948718;4314,8717948718;4376,92307692308;4324,10256410256;4477,4358974359;4597,94871794872;4015,89743589744;4434,8717948718;4199,48717948718;4430,25641025641;4318,97435897436;4148,71794871795;4938,46153846154;1593;1740;72,551;15,5289707183838;0;0;0;0
13;0;395;4304,61538461538;4176,41025641026;4310,25641025641;4377,94871794872;4325,12820512821;4469,23076923077;4592,30769230769;4009,74358974359;4429,74358974359;4198,97435897436;4429,74358974359;4321,02564102564;4142,05128205128;4934,8717948718;1594;1741;72,559;15,5289707183838;0;0;0;0
14;0;465;4301,53846153846;4180;4310,25641025641;4374,35897435897;4328,20512820513;4469,23076923077;4592,82051282051;4009,74358974359;4428,71794871795;4197,4358974359;4428,71794871795;4318,97435897436;4136,92307692308;4930,76923076923;1593;1740;72,567;15,5289707183838;0;0;0;0
15;0;452;4310,25641025641;4184,61538461538;4321,53846153846;4380;4333,33333333333;4477,94871794872;4603,07692307692;4016,92307692308;4434,8717948718;4209,23076923077;4432,30769230769;4320;4142,5641025641;4936,41025641026;1593;1740;72,574;15,5289707183838;0;0;0;0
16;0;0;4314,35897435897;4185,64102564103;4326,66666666667;4384,61538461538;4336,92307692308;4476,92307692308;4604,61538461538;4016,92307692308;4431,79487179487;4216,92307692308;4436,41025641026;4323,58974358974;4147,69230769231;4946,15384615385;1593;1740;72,583;15,5289707183838;0;0;0;0
17;0;0;4312,30769230769;4185,64102564103;4325,12820512821;4380,51282051282;4333,84615384615;4470,76923076923;4597,4358974359;4012,30769230769;4429,23076923077;4214,8717948718;4438,97435897436;4327,17948717949;4146,66666666667;4947,17948717949;1593;1741;72,59;15,5289707183838;0;0;0;0
18;0;0;4316,41025641026;4186,15384615385;4327,17948717949;4380,51282051282;4330,25641025641;4473,33333333333;4597,4358974359;4011,28205128205;4433,33333333333;4220;4445,64102564103;4330,25641025641;4148,20512820513;4946,15384615385;1592;1740;72,598;15,5289707183838;0;0;0;0
19;0;0;4316,92307692308;4186,66666666667;4328,20512820513;4385,64102564103;4332,82051282051;4478,97435897436;4602,05128205128;4010,76923076923;4430,25641025641;4228,20512820513;4449,74358974359;4327,69230769231;4151,79487179487;4948,71794871795;1592;1740;72,606;15,5289707183838;0;0;0;0
20;0;0;4309,74358974359;4187,17948717949;4324,61538461538;4384,10256410256;4335,89743589744;4477,4358974359;4601,53846153846;4010,25641025641;4426,15384615385;4230,25641025641;4450,25641025641;4323,07692307692;4150,25641025641;4946,15384615385;1593;1739;72,614;15,5289707183838;0;0;0;0
21;0;0;4311,28205128205;4188,71794871795;4327,69230769231;4380;4335,89743589744;4480;4604,10256410256;4016,92307692308;4431,28205128205;4233,84615384615;4455,89743589744;4326,66666666667;4150,25641025641;4944,61538461539;1593;1740;72,621;15,5289707183838;0;0;0;0
22;0;0;4317,4358974359;4192,82051282051;4336,41025641026;4383,58974358974;4338,97435897436;4486,66666666667;4610,25641025641;4021,53846153846;4432,82051282051;4244,61538461538;4461,53846153846;4334,35897435897;4154,35897435897;4951,79487179487;1593;1739;72,629;15,5289707183838;0;0;0;0
23;0;0;4314,8717948718;4191,28205128205;4330,25641025641;4387,69230769231;4341,02564102564;4482,5641025641;4605,12820512821;4012,82051282051;4426,66666666667;4244,61538461538;4458,97435897436;4330,25641025641;4148,71794871795;4949,23076923077;1593;1740;72,638;15,5289707183838;0;0;0;0
24;0;0;4308,20512820513;4184,10256410256;4314,8717948718;4384,10256410256;4336,41025641026;4473,33333333333;4595,89743589744;4005,12820512821;4421,53846153846;4227,17948717949;4449,74358974359;4320,51282051282;4136,92307692308;4937,4358974359;1593;1739;72,646;15,5289707183838;0;0;0;0
25;0;0;4308,71794871795;4181,53846153846;4315,89743589744;4380,51282051282;4330,76923076923;4472,82051282051;4593,84615384615;4008,20512820513;4422,05128205128;4216,92307692308;4442,5641025641;4322,05128205128;4138,46153846154;4940;1593;1740;72,653;15,5289707183838;0;0;0;0
26;0;0;4312,82051282051;4181,02564102564;4324,61538461538;4378,97435897436;4329,23076923077;4471,79487179487;4593,84615384615;4010,76923076923;4425,12820512821;4220;4442,5641025641;4325,12820512821;4145,12820512821;4948,20512820513;1593;1739;72,661;15,5289707183838;0;0;0;0
27;0;0;4311,79487179487;4175,89743589744;4321,02564102564;4374,8717948718;4329,23076923077;4466,66666666667;4590,76923076923;4008,20512820513;4426,15384615385;4216,41025641026;4441,53846153846;4321,02564102564;4137,94871794872;4941,53846153846;1593;1739;72,668;15,5289707183838;0;0;0;0
28;0;0;4310,76923076923;4172,82051282051;4316,92307692308;4376,92307692308;4326,66666666667;4467,17948717949;4591,28205128205;4011,28205128205;4423,58974358974;4206,66666666667;4434,8717948718;4320,51282051282;4131,28205128205;4931,79487179487;1594;1738;72,676;15,5289707183838;0;0;0;0
29;0;0;4315,89743589744;4176,92307692308;4323,07692307692;4379,48717948718;4325,64102564103;4471,79487179487;4598,46153846154;4015,89743589744;4424,61538461538;4211,79487179487;4436,92307692308;4327,69230769231;4138,97435897436;4936,92307692308;1593;1739;72,684;15,5289707183838;0;0;0;0
30;0;0;4314,35897435897;4181,53846153846;4326,66666666667;4378,97435897436;4330,76923076923;4474,8717948718;4600,51282051282;4015,38461538462;4427,69230769231;4223,58974358974;4447,69230769231;4330,25641025641;4144,61538461538;4945,12820512821;1594;1739;72,693;15,5289707183838;0;0;0;0
31;0;0;4305,64102564103;4183,58974358974;4318,97435897436;4379,48717948718;4334,35897435897;4478,97435897436;4597,4358974359;4017,4358974359;4430,76923076923;4227,17948717949;4450,25641025641;4326,66666666667;4144,10256410256;4947,69230769231;1592;1738;72,701;15,5289707183838;0;0;0;0
32;0;0;4305,12820512821;4183,58974358974;4309,74358974359;4382,5641025641;4334,35897435897;4479,48717948718;4597,94871794872;4020,51282051282;4431,79487179487;4221,53846153846;4446,66666666667;4324,10256410256;4144,61538461538;4947,69230769231;1593;1740;72,708;15,5289707183838;0;0;0;0
33;0;0;4305,12820512821;4180;4306,66666666667;4378,97435897436;4331,28205128205;4474,35897435897;4594,8717948718;4015,38461538462;4427,69230769231;4214,35897435897;4444,61538461538;4322,05128205128;4142,05128205128;4941,02564102564;1593;1738;72,715;15,5289707183838;0;0;0;0
34;0;0;4298,97435897436;4180;4307,17948717949;4376,41025641026;4327,69230769231;4473,84615384615;4589,74358974359;4006,66666666667;4425,12820512821;4209,23076923077;4440,51282051282;4318,97435897436;4140,51282051282;4933,33333333333;1592;1740;72,723;15,5289707183838;0;0;0;0
35;0;0;4302,5641025641;4185,64102564103;4310,25641025641;4382,05128205128;4325,12820512821;4475,89743589744;4591,28205128205;4004,61538461539;4429,74358974359;4205,64102564103;4438,97435897436;4316,41025641026;4143,07692307692;4934,8717948718;1593;1740;72,731;15,5289707183838;0;0;0;0
36;0;0;4315,38461538462;4186,15384615385;4318,46153846154;4384,61538461538;4325,12820512821;4468,71794871795;4591,28205128205;4005,64102564103;4429,23076923077;4210,76923076923;4442,5641025641;4321,02564102564;4143,58974358974;4945,12820512821;1593;1739;72,739;15,5289707183838;0;0;0;0
37;0;0;4315,38461538462;4180,51282051282;4325,12820512821;4383,07692307692;4326,66666666667;4464,61538461538;4587,17948717949;4005,64102564103;4424,61538461538;4214,35897435897;4442,5641025641;4327,69230769231;4140;4947,69230769231;1593;1737;72,746;15,5289707183838;0;0;0;0
38;0;0;4312,30769230769;4184,61538461538;4324,61538461538;4384,61538461538;4329,74358974359;4471,79487179487;4592,30769230769;4005,64102564103;4424,10256410256;4211,28205128205;4441,53846153846;4326,15384615385;4136,92307692308;4941,02564102564;1593;1738;72,755;15,5289707183838;0;0;0;0
39;0;0;4322,5641025641;4193,84615384615;4324,61538461538;4387,69230769231;4334,35897435897;4474,35897435897;4597,94871794872;4007,17948717949;4423,07692307692;4214,8717948718;4445,12820512821;4321,02564102564;4138,97435897436;4941,53846153846;1594;1737;72,763;15,5289707183838;0;0;0;0
40;0;0;4327,17948717949;4192,30769230769;4321,53846153846;4382,05128205128;4336,41025641026;4469,23076923077;4592,82051282051;4006,66666666667;4418,97435897436;4218,46153846154;4446,15384615385;4320;4142,5641025641;4945,12820512821;1593;1739;72,772;15,5289707183838;0;0;0;0
41;0;0;4314,8717948718;4185,12820512821;4312,82051282051;4376,41025641026;4334,8717948718;4472,30769230769;4592,82051282051;4009,74358974359;4421,53846153846;4216,92307692308;4445,12820512821;4317,4358974359;4141,02564102564;4944,10256410256;1595;1738;72,78;15,5289707183838;0;0;0;0
42;0;0;4308,71794871795;4185,12820512821;4310,25641025641;4381,02564102564;4336,92307692308;4478,97435897436;4600;4015,38461538462;4427,17948717949;4220;4446,15384615385;4314,8717948718;4138,97435897436;4941,53846153846;1594;1738;72,786;15,5289707183838;0;0;0;0
43;0;0;4313,33333333333;4186,66666666667;4316,41025641026;4381,53846153846;4336,92307692308;4476,92307692308;4600,51282051282;4016,92307692308;4428,20512820513;4226,15384615385;4450,25641025641;4315,89743589744;4140;4940;1594;1739;72,794;15,5289707183838;0;0;0;0
44;0;0;4313,33333333333;4185,64102564103;4315,89743589744;4375,38461538462;4334,8717948718;4476,41025641026;4599,48717948718;4015,38461538462;4430,25641025641;4226,15384615385;4451,28205128205;4316,41025641026;4141,02564102564;4938,46153846154;1594;1737;72,802;15,5289707183838;0;0;0;0
45;0;0;4306,66666666667;4185,12820512821;4307,69230769231;4375,38461538462;4335,89743589744;4476,92307692308;4597,4358974359;4011,79487179487;4428,71794871795;4220,51282051282;4448,20512820513;4308,71794871795;4139,48717948718;4938,46153846154;1593;1740;72,81;15,5289707183838;0;0;0;0
46;0;0;4298,97435897436;4183,58974358974;4304,10256410256;4378,46153846154;4337,94871794872;4473,33333333333;4589,74358974359;4006,15384615385;4420,51282051282;4213,33333333333;4441,02564102564;4295,89743589744;4132,30769230769;4933,84615384615;1593;1739;72,818;15,5289707183838;0;0;0;0
47;0;0;4297,94871794872;4182,05128205128;4304,61538461538;4376,92307692308;4336,92307692308;4473,84615384615;4584,61538461538;4002,05128205128;4418,46153846154;4202,05128205128;4435,38461538462;4293,84615384615;4125,64102564103;4925,64102564103;1592;1740;72,826;15,5289707183838;0;0;0;0
48;0;0;4305,12820512821;4186,66666666667;4308,71794871795;4378,97435897436;4335,89743589744;4476,92307692308;4588,20512820513;4005,64102564103;4423,07692307692;4197,4358974359;4435,38461538462;4303,58974358974;4130,76923076923;4928,71794871795;1593;1740;72,832;15,5289707183838;0;0;0;0
49;0;0;4313,33333333333;4192,82051282051;4316,92307692308;4384,61538461538;4337,94871794872;4477,4358974359;4594,8717948718;4011,28205128205;4424,61538461538;4209,23076923077;4441,02564102564;4309,74358974359;4141,53846153846;4941,53846153846;1592;1740;72,841;15,5289707183838;0;0;0;0
50;0;0;4317,4358974359;4192,82051282051;4322,05128205128;4383,58974358974;4336,41025641026;4483,58974358974;4596,92307692308;4010,25641025641;4422,05128205128;4220,51282051282;4448,71794871795;4307,17948717949;4144,61538461538;4949,74358974359;1592;1739;72,849;15,5289707183838;0;0;0;0
51;0;0;4324,10256410256;4195,38461538462;4321,53846153846;4383,07692307692;4334,8717948718;4488,20512820513;4595,89743589744;4007,69230769231;4421,53846153846;4226,66666666667;4456,92307692308;4307,17948717949;4144,61538461538;4953,33333333333;1591;1739;72,857;15,5289707183838;0;0;0;0
52;0;0;4332,82051282051;4202,5641025641;4327,17948717949;4387,69230769231;4339,48717948718;4481,02564102564;4597,4358974359;4009,74358974359;4424,10256410256;4238,46153846154;4464,10256410256;4309,74358974359;4151,79487179487;4957,4358974359;1593;1739;72,866;15,5289707183838;0;0;0;0
53;0;0;4330,25641025641;4197,94871794872;4330,25641025641;4385,64102564103;4341,02564102564;4469,23076923077;4595,89743589744;4008,71794871795;4423,07692307692;4243,58974358974;4464,61538461538;4305,12820512821;4152,30769230769;4956,92307692308;1592;1738;72,874;15,5289707183838;0;0;0;0
54;0;0;4321,02564102564;4189,74358974359;4321,02564102564;4379,48717948718;4335,89743589744;4461,02564102564;4587,69230769231;4001,53846153846;4418,97435897436;4233,84615384615;4461,02564102564;4298,97435897436;4145,12820512821;4948,71794871795;1593;1740;72,879;15,5289707183838;0;0;0;0
55;0;0;4322,05128205128;4193,33333333333;4317,94871794872;4381,02564102564;4336,41025641026;4460,51282051282;4587,17948717949;4003,58974358974;4420,51282051282;4228,71794871795;4459,48717948718;4298,46153846154;4143,58974358974;4947,69230769231;1593;1738;72,888;15,5289707183838;0;0;0;0
56;0;0;4329,74358974359;4195,38461538462;4326,66666666667;4384,10256410256;4341,02564102564;4465,64102564103;4596,41025641026;4012,30769230769;4426,66666666667;4238,97435897436;4465,12820512821;4302,5641025641;4147,17948717949;4954,8717948718;1593;1739;72,896;15,5289707183838;0;0;0;0
57;0;0;4324,10256410256;4190,76923076923;4327,69230769231;4381,53846153846;4339,48717948718;4468,71794871795;4601,02564102564;4018,97435897436;4430,76923076923;4248,20512820513;4473,33333333333;4304,61538461538;4151,28205128205;4959,48717948718;1594;1737;72,906;15,5289707183838;0;0;0;0
58;0;0;4315,89743589744;4192,82051282051;4322,5641025641;4381,53846153846;4337,94871794872;4471,79487179487;4601,53846153846;4023,07692307692;4431,79487179487;4251,79487179487;4475,89743589744;4303,58974358974;4156,41025641026;4960,51282051282;1594;1737;72,912;15,5289707183838;0;0;0;0
59;0;0;4320,51282051282;4195,89743589744;4321,53846153846;4386,66666666667;4341,02564102564;4480,51282051282;4603,58974358974;4022,05128205128;4432,30769230769;4257,4358974359;4480;4300;4157,4358974359;4960;1595;1737;72,919;15,5289707183838;0;0;0;0
60;0;0;4322,5641025641;4193,84615384615;4318,46153846154;4387,69230769231;4340,51282051282;4489,74358974359;4601,53846153846;4018,46153846154;4433,84615384615;4264,61538461538;4485,12820512821;4293,84615384615;4151,28205128205;4955,89743589744;1594;1736;72,928;15,5289707183838;0;0;0;0
61;0;0;4311,79487179487;4189,74358974359;4312,82051282051;4381,53846153846;4339,48717948718;4488,20512820513;4595,38461538462;4014,8717948718;4433,33333333333;4261,53846153846;4484,10256410256;4289,74358974359;4144,61538461538;4948,71794871795;1595;1737;72,935;15,5289707183838;0;0;0;0
62;0;0;4300,51282051282;4187,17948717949;4310,76923076923;4379,48717948718;4345,64102564103;4485,64102564103;4592,30769230769;4011,79487179487;4429,23076923077;4249,74358974359;4476,41025641026;4288,20512820513;4140;4938,97435897436;1595;1737;72,945;15,5289707183838;0;0;0;0
63;0;0;4302,05128205128;4187,69230769231;4310,25641025641;4382,05128205128;4348,20512820513;4484,61538461538;4592,82051282051;4012,30769230769;4425,64102564103;4239,48717948718;4470,25641025641;4282,5641025641;4135,89743589744;4935,38461538462;1594;1737;72,953;15,5289707183838;0;0;0;0
64;0;466;4309,74358974359;4190,76923076923;4308,20512820513;4384,10256410256;4341,53846153846;4480;4591,28205128205;4010,76923076923;4423,58974358974;4234,35897435897;4466,15384615385;4276,41025641026;4133,84615384615;4941,02564102564;1593;1737;72,959;15,5289707183838;0;0;0;0
65;0;410;4318,46153846154;4191,79487179487;4312,30769230769;4386,66666666667;4338,97435897436;4475,89743589744;4591,79487179487;4009,23076923077;4423,07692307692;4235,38461538462;4463,58974358974;4278,97435897436;4137,4358974359;4946,15384615385;1593;1737;72,966;16,0293998718262;0;0;0;0
66;0;497;4322,05128205128;4189,74358974359;4322,5641025641;4387,69230769231;4341,02564102564;4476,92307692308;4594,35897435897;4011,79487179487;4425,12820512821;4242,05128205128;4466,15384615385;4282,05128205128;4142,05128205128;4944,61538461539;1593;1736;72,973;16,0293998718262;0;0;0;0
67;0;504;4318,97435897436;4191,79487179487;4324,10256410256;4385,12820512821;4342,5641025641;4479,48717948718;4596,92307692308;4017,94871794872;4427,69230769231;4241,53846153846;4469,74358974359;4280;4136,41025641026;4940,51282051282;1592;1738;72,982;16,0293998718262;0;0;0;0
68;0;502;4318,46153846154;4195,38461538462;4318,46153846154;4383,07692307692;4345,12820512821;4477,4358974359;4596,41025641026;4016,92307692308;4427,17948717949;4235,89743589744;4465,64102564103;4277,4358974359;4130,25641025641;4936,41025641026;1593;1737;72,992;16,0293998718262;0;0;0;0
69;0;486;4324,61538461538;4190,76923076923;4319,48717948718;4386,66666666667;4343,58974358974;4474,8717948718;4594,35897435897;4009,23076923077;4425,12820512821;4237,94871794872;4461,53846153846;4276,92307692308;4131,28205128205;4934,8717948718;1592;1737;72,997;16,0293998718262;0;0;0;0
70;0;456;4329,74358974359;4187,69230769231;4325,64102564103;4389,74358974359;4341,53846153846;4478,97435897436;4593,84615384615;4009,23076923077;4425,64102564103;4245,64102564103;4470,25641025641;4281,02564102564;4137,94871794872;4947,69230769231;1592;1738;73,006;16,0293998718262;0;0;0;0
71;0;383;4331,79487179487;4194,35897435897;4329,23076923077;4388,20512820513;4342,5641025641;4485,12820512821;4598,97435897436;4017,4358974359;4432,30769230769;4258,46153846154;4485,64102564103;4289,23076923077;4153,84615384615;4969,74358974359;1591;1738;73,013;16,0293998718262;0;0;0;0
72;0;383;4331,79487179487;4199,48717948718;4330,25641025641;4388,71794871795;4344,10256410256;4484,10256410256;4600,51282051282;4021,02564102564;4436,92307692308;4272,82051282051;4494,8717948718;4291,28205128205;4163,07692307692;4975,38461538462;1592;1739;73,021;16,0293998718262;0;0;0;0
73;0;528;4328,20512820513;4196,92307692308;4327,69230769231;4390,25641025641;4348,20512820513;4481,02564102564;4594,35897435897;4015,89743589744;4431,28205128205;4272,82051282051;4492,82051282051;4284,61538461538;4154,35897435897;4961,02564102564;1592;1739;73,028;16,0293998718262;0;0;0;0
74;0;465;4321,02564102564;4194,8717948718;4322,05128205128;4389,74358974359;4352,30769230769;4482,5641025641;4594,8717948718;4014,35897435898;4425,12820512821;4264,61538461538;4489,23076923077;4277,94871794872;4144,61538461538;4949,74358974359;1591;1740;73,036;16,0293998718262;0;0;0;0
75;0;452;4318,46153846154;4195,38461538462;4314,8717948718;4388,20512820513;4351,28205128205;4485,64102564103;4599,48717948718;4014,35897435898;4426,15384615385;4264,10256410256;4487,69230769231;4273,33333333333;4142,5641025641;4949,74358974359;1592;1739;73,044;16,0293998718262;0;0;0;0
76;0;352;4316,92307692308;4194,8717948718;4308,20512820513;4386,15384615385;4351,79487179487;4485,12820512821;4594,8717948718;4008,20512820513;4425,64102564103;4258,46153846154;4482,05128205128;4267,69230769231;4133,33333333333;4941,02564102564;1592;1740;73,052;16,0293998718262;0;0;0;0
77;0;395;4310,76923076923;4191,79487179487;4308,20512820513;4387,17948717949;4357,94871794872;4483,07692307692;4591,79487179487;4009,74358974359;4425,12820512821;4247,69230769231;4474,35897435897;4264,10256410256;4128,20512820513;4931,28205128205;1592;1739;73,059;16,0293998718262;0;0;0;0
78;0;465;4305,12820512821;4194,35897435897;4310,76923076923;4389,23076923077;4360,51282051282;4483,58974358974;4594,8717948718;4014,8717948718;4428,71794871795;4248,20512820513;4476,41025641026;4260,51282051282;4133,33333333333;4936,41025641026;1593;1739;73,068;16,0293998718262;0;0;0;0
79;0;452;4306,66666666667;4200;4308,71794871795;4388,20512820513;4356,92307692308;4479,48717948718;4588,71794871795;4008,20512820513;4428,71794871795;4246,66666666667;4476,41025641026;4258,97435897436;4129,23076923077;4936,92307692308;1592;1740;73,076;16,0293998718262;0;0;0;0
80;0;352;4314,8717948718;4200,51282051282;4312,82051282051;4388,71794871795;4353,84615384615;4475,38461538462;4583,58974358974;4003,58974358974;4424,61538461538;4240;4470,25641025641;4260,51282051282;4123,58974358974;4929,74358974359;1593;1739;73,083;16,0293998718262;0;0;0;0
81;0;395;4322,05128205128;4198,97435897436;4321,53846153846;4390,76923076923;4355,38461538462;4480;4593,84615384615;4011,79487179487;4424,10256410256;4243,58974358974;4470,25641025641;4262,05128205128;4130,76923076923;4933,84615384615;1593;1739;73,091;16,0293998718262;0;0;0;0
82;0;465;4326,15384615385;4200,51282051282;4322,05128205128;4389,74358974359;4357,4358974359;4484,61538461538;4600;4014,35897435898;4426,15384615385;4252,82051282051;4478,97435897436;4264,61538461538;4138,46153846154;4948,20512820513;1593;1739;73,098;16,0293998718262;0;0;0;0
83;0;452;4326,66666666667;4200;4317,4358974359;4387,17948717949;4356,41025641026;4479,48717948718;4591,79487179487;4008,20512820513;4427,69230769231;4252,30769230769;4484,10256410256;4267,17948717949;4141,02564102564;4956,92307692308;1593;1738;73,106;16,0293998718262;0;0;0;0
84;0;352;4322,05128205128;4194,8717948718;4317,94871794872;4387,17948717949;4353,33333333333;4476,92307692308;4589,23076923077;4011,28205128205;4429,74358974359;4251,79487179487;4482,05128205128;4268,20512820513;4145,12820512821;4958,97435897436;1593;1738;73,116;16,0293998718262;0;0;0;0
85;0;395;4328,20512820513;4192,82051282051;4329,23076923077;4389,23076923077;4353,84615384615;4483,07692307692;4602,05128205128;4022,5641025641;4435,38461538462;4266,15384615385;4488,71794871795;4274,35897435897;4153,33333333333;4966,66666666667;1594;1737;73,123;16,0293998718262;0;0;0;0
86;0;465;4344,10256410256;4197,94871794872;4337,94871794872;4391,79487179487;4355,38461538462;4480;4608,71794871795;4025,64102564103;4437,94871794872;4285,12820512821;4505,64102564103;4284,61538461538;4164,61538461538;4981,02564102564;1592;1738;73,13;16,0293998718262;0;0;0;0
87;0;452;4350,25641025641;4203,07692307692;4335,38461538462;4390,25641025641;4353,84615384615;4469,74358974359;4600;4020,51282051282;4431,28205128205;4290,76923076923;4513,84615384615;4288,71794871795;4171,28205128205;4988,71794871795;1594;1737;73,137;16,0293998718262;0;0;0;0
88;0;352;4357,94871794872;4209,23076923077;4340;4391,28205128205;4353,84615384615;4469,74358974359;4593,84615384615;4017,94871794872;4429,23076923077;4294,35897435897;4514,35897435897;4288,71794871795;4174,8717948718;4993,84615384615;1593;1736;73,146;16,0293998718262;0;0;0;0
89;0;395;4393,84615384615;4221,53846153846;4357,4358974359;4402,05128205128;4355,89743589744;4475,89743589744;4596,92307692308;4020;4432,82051282051;4315,38461538462;4528,20512820513;4295,89743589744;4191,28205128205;5018,46153846154;1593;1737;73,153;16,0293998718262;0;0;0;0
90;0;465;4443,58974358974;4240;4375,38461538462;4412,30769230769;4359,48717948718;4479,48717948718;4598,97435897436;4020;4430,76923076923;4352,30769230769;4553,84615384615;4309,74358974359;4220,51282051282;5059,48717948718;1593;1737;73,161;16,0293998718262;0;0;0;0
91;0;452;4468,20512820513;4250,76923076923;4388,20512820513;4415,89743589744;4361,53846153846;4480,51282051282;4598,97435897436;4015,89743589744;4427,69230769231;4386,15384615385;4574,35897435897;4317,4358974359;4241,53846153846;5085,12820512821;1592;1737;73,169;16,0293998718262;0;0;0;0
92;0;352;4469,23076923077;4246,15384615385;4392,82051282051;4414,35897435897;4361,02564102564;4476,41025641026;4597,94871794872;4013,33333333333;4425,64102564103;4402,5641025641;4589,74358974359;4316,41025641026;4242,5641025641;5085,12820512821;1593;1737;73,178;16,0293998718262;0;0;0;0
93;0;395;4465,12820512821;4240,51282051282;4391,28205128205;4412,82051282051;4362,05128205128;4474,8717948718;4596,41025641026;4014,35897435898;4424,61538461538;4410,25641025641;4601,02564102564;4314,35897435897;4240;5078,46153846154;1592;1737;73,184;16,0293998718262;0;0;0;0
94;0;465;4448,71794871795;4238,46153846154;4383,07692307692;4409,74358974359;4362,05128205128;4475,89743589744;4593,84615384615;4010,76923076923;4422,05128205128;4413,33333333333;4602,5641025641;4307,69230769231;4236,41025641026;5071,79487179487;1593;1736;73,192;16,0293998718262;0;0;0;0
95;0;452;4428,71794871795;4230,76923076923;4371,79487179487;4404,10256410256;4358,97435897436;4471,79487179487;4588,20512820513;4003,58974358974;4417,94871794872;4402,05128205128;4594,35897435897;4295,38461538462;4224,61538461538;5061,02564102564;1592;1738;73,2;16,0293998718262;0;0;0;0
96;0;352;4426,66666666667;4226,15384615385;4364,61538461538;4404,10256410256;4355,38461538462;4468,20512820513;4584,10256410256;4004,10256410256;4417,94871794872;4388,20512820513;4587,17948717949;4290,25641025641;4213,33333333333;5048,20512820513;1593;1737;73,208;16,0293998718262;0;0;0;0
97;0;395;4426,15384615385;4229,74358974359;4363,58974358974;4407,69230769231;4353,84615384615;4472,30769230769;4590,76923076923;4011,79487179487;4422,05128205128;4392,30769230769;4585,64102564103;4292,82051282051;4207,69230769231;5037,94871794872;1592;1739;73,216;16,0293998718262;0;0;0;0
98;0;465;4408,20512820513;4230,76923076923;4360;4403,58974358974;4356,92307692308;4475,89743589744;4596,41025641026;4015,38461538462;4427,69230769231;4395,38461538462;4587,69230769231;4290,76923076923;4204,10256410256;5031,28205128205;1593;1738;73,223;16,0293998718262;0;0;0;0
99;0;452;4388,20512820513;4226,66666666667;4353,84615384615;4396,41025641026;4363,58974358974;4473,33333333333;4593,84615384615;4013,33333333333;4430,25641025641;4383,58974358974;4586,15384615385;4286,15384615385;4195,89743589744;5017,94871794872;1591;1738;73,231;16,0293998718262;0;0;0;0
100;0;352;4375,89743589744;4223,58974358974;4349,74358974359;4398,46153846154;4365,12820512821;4471,28205128205;4593,84615384615;4013,33333333333;4430,76923076923;4373,84615384615;4579,48717948718;4287,69230769231;4179,48717948718;4997,94871794872;1592;1739;73,24;16,0293998718262;0;0;0;0
101;0;395;4364,61538461538;4217,4358974359;4346,15384615385;4402,5641025641;4362,05128205128;4476,41025641026;4596,92307692308;4014,8717948718;4427,17948717949;4365,64102564103;4570,76923076923;4286,66666666667;4167,69230769231;4988,20512820513;1591;1738;73,248;16,0293998718262;0;0;0;0
102;0;465;4356,92307692308;4207,69230769231;4346,15384615385;4395,89743589744;4364,10256410256;4482,05128205128;4595,38461538462;4013,33333333333;4426,15384615385;4354,8717948718;4560,51282051282;4281,53846153846;4168,20512820513;4990,76923076923;1592;1739;73,255;16,0293998718262;0;0;0;0
103;0;452;4352,30769230769;4210,25641025641;4352,82051282051;4390,25641025641;4367,69230769231;4480;4597,4358974359;4015,89743589744;4431,28205128205;4350,25641025641;4555,89743589744;4280,51282051282;4167,17948717949;4984,61538461539;1592;1737;73,263;16,0293998718262;0;0;0;0
104;0;352;4342,5641025641;4215,38461538462;4354,35897435897;4394,35897435897;4364,10256410256;4480,51282051282;4605,12820512821;4024,10256410256;4436,41025641026;4350,76923076923;4559,48717948718;4283,07692307692;4161,02564102564;4971,79487179487;1591;1739;73,271;16,0293998718262;0;0;0;0
105;0;395;4333,33333333333;4206,15384615385;4347,17948717949;4391,79487179487;4361,02564102564;4487,69230769231;4607,69230769231;4024,61538461539;4435,38461538462;4347,69230769231;4557,94871794872;4280;4156,41025641026;4966,66666666667;1592;1738;73,278;16,3421688079834;0;0;0;0
106;0;465;4331,28205128205;4197,4358974359;4341,02564102564;4383,07692307692;4365,64102564103;4493,84615384615;4605,64102564103;4020,51282051282;4434,35897435897;4339,48717948718;4549,23076923077;4274,35897435897;4154,35897435897;4968,71794871795;1591;1739;73,287;16,3421688079834;0;0;0;0
107;0;452;4323,58974358974;4195,38461538462;4339,48717948718;4381,53846153846;4368,71794871795;4490,25641025641;4602,05128205128;4017,4358974359;4434,35897435897;4327,69230769231;4541,53846153846;4270,25641025641;4150,76923076923;4962,05128205128;1592;1737;73,294;16,3421688079834;0;0;0;0
108;0;352;4316,92307692308;4194,35897435897;4338,97435897436;4385,64102564103;4365,64102564103;4486,15384615385;4599,48717948718;4018,46153846154;4432,82051282051;4317,4358974359;4537,94871794872;4268,20512820513;4145,12820512821;4948,71794871795;1591;1739;73,302;16,3421688079834;0;0;0;0
109;0;395;4327,69230769231;4200;4343,07692307692;4385,64102564103;4368,20512820513;4490,76923076923;4603,58974358974;4023,07692307692;4435,38461538462;4321,53846153846;4541,02564102564;4270,25641025641;4146,15384615385;4953,33333333333;1593;1739;73,31;16,3421688079834;0;0;0;0
110;0;465;4331,28205128205;4206,15384615385;4348,71794871795;4386,15384615385;4375,38461538462;4500;4613,84615384615;4029,23076923077;4443,07692307692;4336,92307692308;4551,28205128205;4274,8717948718;4154,35897435897;4969,23076923077;1592;1737;73,317;16,3421688079834;0;0;0;0
111;0;452;4322,05128205128;4203,07692307692;4348,71794871795;4387,69230769231;4380,51282051282;4502,05128205128;4619,48717948718;4034,8717948718;4446,15384615385;4345,12820512821;4553,84615384615;4276,92307692308;4160,51282051282;4969,74358974359;1592;1737;73,326;16,3421688079834;0;0;0;0
112;0;352;4323,58974358974;4200,51282051282;4345,64102564103;4385,12820512821;4380,51282051282;4498,46153846154;4617,94871794872;4034,8717948718;4443,58974358974;4342,05128205128;4550,76923076923;4271,79487179487;4157,94871794872;4960,51282051282;1593;1736;73,333;16,3421688079834;0;0;0;0
113;0;395;4332,30769230769;4205,64102564103;4348,20512820513;4386,15384615385;4381,02564102564;4500;4616,41025641026;4033,33333333333;4445,12820512821;4345,12820512821;4554,8717948718;4272,30769230769;4157,4358974359;4967,69230769231;1593;1738;73,341;16,3421688079834;0;0;0;0
114;0;465;4334,35897435897;4211,79487179487;4356,41025641026;4392,30769230769;4385,12820512821;4509,23076923077;4618,97435897436;4033,33333333333;4448,71794871795;4362,05128205128;4568,20512820513;4282,05128205128;4166,15384615385;4983,58974358974;1594;1739;73,349;16,3421688079834;0;0;0;0
115;0;452;4336,92307692308;4210,25641025641;4361,02564102564;4391,79487179487;4386,66666666667;4511,28205128205;4619,48717948718;4029,74358974359;4442,5641025641;4365,64102564103;4575,38461538462;4284,61538461538;4167,69230769231;4978,46153846154;1594;1741;73,356;16,3421688079834;0;0;0;0
116;0;352;4336,41025641026;4201,53846153846;4356,41025641026;4384,10256410256;4382,05128205128;4501,53846153846;4614,35897435897;4021,02564102564;4432,82051282051;4345,64102564103;4566,66666666667;4274,35897435897;4155,38461538462;4960,51282051282;1595;1741;73,365;16,3421688079834;0;0;0;0
117;0;395;4324,10256410256;4196,92307692308;4349,23076923077;4381,53846153846;4373,84615384615;4494,35897435897;4610,25641025641;4016,41025641026;4431,28205128205;4328,71794871795;4552,30769230769;4266,66666666667;4142,5641025641;4948,71794871795;1595;1742;73,372;16,3421688079834;0;0;0;0
118;0;465;4315,38461538462;4198,46153846154;4347,17948717949;4386,66666666667;4370,76923076923;4493,33333333333;4610,76923076923;4014,35897435898;4430,25641025641;4324,61538461538;4543,58974358974;4268,20512820513;4138,46153846154;4950,76923076923;1595;1742;73,381;16,3421688079834;0;0;0;0
119;0;452;4320;4195,38461538462;4351,28205128205;4388,20512820513;4372,30769230769;4490,76923076923;4611,79487179487;4014,8717948718;4428,71794871795;4321,02564102564;4540,51282051282;4266,66666666667;4143,58974358974;4961,02564102564;1594;1744;73,388;16,3421688079834;0;0;0;0
120;0;352;4327,69230769231;4191,79487179487;4352,82051282051;4385,12820512821;4371,28205128205;4489,74358974359;4614,8717948718;4023,58974358974;4436,92307692308;4324,61538461538;4545,64102564103;4270,76923076923;4156,41025641026;4970,25641025641;1594;1744;73,396;16,3421688079834;0;0;0;0
121;0;395;4321,53846153846;4191,79487179487;4347,17948717949;4378,46153846154;4368,20512820513;4491,28205128205;4616,41025641026;4026,15384615385;4440,51282051282;4330,76923076923;4550,25641025641;4276,92307692308;4158,97435897436;4967,69230769231;1594;1743;73,403;16,3421688079834;0;0;0;0
122;0;465;4307,69230769231;4188,20512820513;4342,05128205128;4375,89743589744;4366,66666666667;4485,12820512821;4609,23076923077;4018,97435897436;4433,33333333333;4318,97435897436;4541,53846153846;4272,82051282051;4146,66666666667;4955,38461538462;1594;1744;73,411;16,3421688079834;0;0;0;0
123;0;452;4314,35897435897;4188,20512820513;4346,15384615385;4380;4367,69230769231;4480;4605,12820512821;4018,97435897436;4431,79487179487;4309,74358974359;4533,84615384615;4268,20512820513;4144,10256410256;4949,74358974359;1594;1742;73,419;16,3421688079834;0;0;0;0
124;0;352;4327,69230769231;4192,82051282051;4351,28205128205;4380;4368,20512820513;4482,5641025641;4609,23076923077;4023,58974358974;4437,4358974359;4311,79487179487;4535,38461538462;4269,74358974359;4150,76923076923;4954,35897435897;1592;1743;73,427;16,3421688079834;0;0;0;0
125;0;395;4325,64102564103;4196,41025641026;4352,82051282051;4377,4358974359;4365,64102564103;4488,20512820513;4613,84615384615;4022,5641025641;4438,97435897436;4312,82051282051;4538,46153846154;4269,74358974359;4156,41025641026;4964,10256410256;1593;1743;73,435;16,4985542297363;0;0;0;0
126;0;465;4324,10256410256;4199,48717948718;4357,94871794872;4382,05128205128;4367,17948717949;4496,41025641026;4615,89743589744;4022,5641025641;4440,51282051282;4319,48717948718;4543,58974358974;4266,66666666667;4161,53846153846;4969,23076923077;1593;1744;73,443;16,4985542297363;0;0;0;0
127;0;452;4328,71794871795;4197,4358974359;4356,92307692308;4382,05128205128;4368,71794871795;4494,35897435897;4611,28205128205;4021,53846153846;4436,92307692308;4323,58974358974;4542,5641025641;4262,05128205128;4155,89743589744;4962,05128205128;1593;1743;73,451;16,4985542297363;0;0;0;0
128;0;352;4325,64102564103;4192,82051282051;4349,23076923077;4377,4358974359;4367,69230769231;4486,15384615385;4605,64102564103;4018,46153846154;4431,28205128205;4313,33333333333;4535,38461538462;4257,94871794872;4145,12820512821;4954,8717948718;1592;1743;73,459;16,4985542297363;0;0;0;0
0;0;466;4320;4195,89743589744;4349,23076923077;4379,48717948718;4372,30769230769;4494,35897435897;4610,76923076923;4022,5641025641;4435,38461538462;4307,17948717949;4534,8717948718;4258,97435897436;4147,69230769231;4954,8717948718;1593;1743;73,466;16,5298309326172;0;0;0;0
1;0;410;4316,92307692308;4196,41025641026;4352,30769230769;4380;4373,84615384615;4503,07692307692;4614,35897435897;4024,10256410256;4440;4309,23076923077;4536,41025641026;4260;4145,64102564103;4946,66666666667;1592;1743;73,474;16,5298309326172;0;0;0;0
2;0;497;4316,41025641026;4193,84615384615;4353,84615384615;4378,46153846154;4368,20512820513;4499,48717948718;4612,82051282051;4021,02564102564;4439,48717948718;4306,15384615385;4534,35897435897;4257,94871794872;4137,4358974359;4938,97435897436;1593;1743;73,482;16,5298309326172;0;0;0;0
3;0;504;4317,4358974359;4194,8717948718;4355,38461538462;4381,02564102564;4367,69230769231;4501,02564102564;4612,82051282051;4021,53846153846;4440,51282051282;4303,58974358974;4534,35897435897;4256,41025641026;4139,48717948718;4949,23076923077;1592;1742;73,49;16,5298309326172;0;0;0;0
4;0;502;4313,33333333333;4189,23076923077;4351,79487179487;4378,46153846154;4368,20512820513;4496,41025641026;4607,17948717949;4017,94871794872;4436,41025641026;4301,02564102564;4529,74358974359;4248,20512820513;4138,46153846154;4949,74358974359;1593;1742;73,497;16,5298309326172;0;0;0;0
5;0;486;4309,74358974359;4183,58974358974;4346,15384615385;4372,82051282051;4358,46153846154;4481,02564102564;4596,41025641026;4012,82051282051;4431,28205128205;4288,71794871795;4519,48717948718;4244,61538461538;4134,8717948718;4935,89743589744;1593;1742;73,506;16,5298309326172;0;0;0;0
6;0;456;4313,84615384615;4189,23076923077;4345,64102564103;4371,28205128205;4352,30769230769;4479,48717948718;4596,41025641026;4014,8717948718;4436,92307692308;4278,97435897436;4514,8717948718;4249,23076923077;4144,10256410256;4940;1593;1741;73,513;16,5298309326172;0;0;0;0
7;0;383;4316,41025641026;4192,82051282051;4342,5641025641;4370,25641025641;4358,97435897436;4489,74358974359;4601,53846153846;4019,48717948718;4442,05128205128;4281,02564102564;4518,46153846154;4250,76923076923;4149,74358974359;4953,84615384615;1593;1741;73,522;16,5298309326172;0;0;0;0
8;0;383;4311,79487179487;4191,28205128205;4338,97435897436;4367,69230769231;4363,07692307692;4488,71794871795;4601,53846153846;4017,4358974359;4439,48717948718;4281,53846153846;4515,38461538462;4247,69230769231;4144,61538461538;4953,33333333333;1593;1741;73,528;16,5298309326172;0;0;0;0
9;0;529;4312,30769230769;4195,38461538462;4341,53846153846;4370,76923076923;4358,97435897436;4482,5641025641;4598,46153846154;4014,8717948718;4436,41025641026;4273,84615384615;4507,17948717949;4247,69230769231;4143,07692307692;4945,64102564103;1592;1741;73,536;16,5298309326172;0;0;0;0
10;0;465;4316,41025641026;4197,94871794872;4341,02564102564;4372,30769230769;4355,38461538462;4482,5641025641;4598,46153846154;4016,41025641026;4435,38461538462;4269,23076923077;4507,17948717949;4246,66666666667;4138,97435897436;4934,8717948718;1593;1741;73,544;16,5298309326172;0;0;0;0
11;0;452;4313,33333333333;4191,28205128205;4335,38461538462;4371,79487179487;4354,8717948718;4488,20512820513;4602,05128205128;4014,35897435898;4432,30769230769;4264,61538461538;4506,15384615385;4236,92307692308;4127,17948717949;4922,05128205128;1592;1740;73,553;16,5298309326172;0;0;0;0
12;0;352;4303,07692307692;4184,10256410256;4330,25641025641;4369,23076923077;4354,8717948718;4493,33333333333;4601,02564102564;4010,25641025641;4426,66666666667;4248,20512820513;4492,30769230769;4229,74358974359;4120;4918,97435897436;1593;1741;73,56;16,5298309326172;0;0;0;0
13;0;395;4294,35897435897;4183,07692307692;4325,64102564103;4365,64102564103;4355,89743589744;4491,79487179487;4595,89743589744;4006,15384615385;4422,5641025641;4229,74358974359;4477,94871794872;4229,23076923077;4118,46153846154;4921,53846153846;1593;1739;73,568;16,5298309326172;0;0;0;0
14;0;465;4295,38461538462;4185,64102564103;4327,17948717949;4364,10256410256;4356,92307692308;4487,17948717949;4592,30769230769;4004,10256410256;4424,10256410256;4222,5641025641;4472,82051282051;4228,20512820513;4116,92307692308;4921,02564102564;1592;1741;73,575;16,5298309326172;0;0;0;0
15;0;452;4298,97435897436;4182,5641025641;4333,84615384615;4361,53846153846;4354,8717948718;4481,02564102564;4590,25641025641;4001,53846153846;4424,61538461538;4217,4358974359;4468,20512820513;4227,69230769231;4117,4358974359;4917,4358974359;1593;1740;73,583;16,5298309326172;0;0;0;0
16;0;0;4304,10256410256;4177,4358974359;4337,94871794872;4360,51282051282;4353,33333333333;4476,41025641026;4589,74358974359;4002,5641025641;4421,02564102564;4210,25641025641;4461,53846153846;4231,28205128205;4118,46153846154;4914,8717948718;1592;1740;73,591;16,5298309326172;0;0;0;0
17;0;0;4317,94871794872;4182,05128205128;4347,17948717949;4365,64102564103;4355,38461538462;4481,53846153846;4595,89743589744;4008,71794871795;4427,69230769231;4220,51282051282;4466,66666666667;4238,97435897436;4123,58974358974;4923,07692307692;1593;1741;73,599;16,5298309326172;0;0;0;0
18;0;0;4323,58974358974;4186,66666666667;4356,92307692308;4370,25641025641;4354,8717948718;4489,74358974359;4602,05128205128;4012,30769230769;4435,89743589744;4240;4484,10256410256;4246,15384615385;4134,8717948718;4938,46153846154;1593;1740;73,607;16,5298309326172;0;0;0;0
19;0;0;4317,4358974359;4184,10256410256;4355,38461538462;4367,69230769231;4350,76923076923;4485,64102564103;4602,05128205128;4013,33333333333;4431,28205128205;4244,61538461538;4491,79487179487;4250,25641025641;4141,02564102564;4944,10256410256;1593;1739;73,614;16,5298309326172;0;0;0;0
20;0;0;4321,02564102564;4189,74358974359;4352,82051282051;4365,12820512821;4350,25641025641;4486,15384615385;4601,53846153846;4017,4358974359;4430,76923076923;4248,20512820513;4491,79487179487;4250,25641025641;4141,53846153846;4944,10256410256;1592;1738;73,623;16,5298309326172;0;0;0;0
21;0;0;4326,66666666667;4193,84615384615;4354,8717948718;4363,07692307692;4351,28205128205;4496,92307692308;4606,66666666667;4018,46153846154;4435,38461538462;4257,4358974359;4496,92307692308;4247,69230769231;4143,07692307692;4946,15384615385;1594;1738;73,63;16,5298309326172;0;0;0;0
22;0;0;4313,33333333333;4183,07692307692;4344,10256410256;4358,46153846154;4350,76923076923;4497,4358974359;4607,17948717949;4010,25641025641;4429,74358974359;4252,82051282051;4496,41025641026;4244,10256410256;4140,51282051282;4941,53846153846;1593;1737;73,638;16,5298309326172;0;0;0;0
23;0;0;4306,66666666667;4180;4330,76923076923;4357,4358974359;4352,82051282051;4491,28205128205;4602,5641025641;4005,12820512821;4425,12820512821;4242,05128205128;4490,25641025641;4240,51282051282;4137,94871794872;4937,94871794872;1594;1740;73,647;16,5298309326172;0;0;0;0
24;0;0;4309,74358974359;4185,12820512821;4330,76923076923;4354,8717948718;4351,28205128205;4483,58974358974;4595,38461538462;4005,12820512821;4426,15384615385;4237,4358974359;4486,15384615385;4235,38461538462;4135,89743589744;4933,33333333333;1594;1738;73,654;16,5298309326172;0;0;0;0
25;0;0;4302,5641025641;4185,12820512821;4335,38461538462;4353,33333333333;4347,17948717949;4476,92307692308;4594,8717948718;4007,17948717949;4426,15384615385;4232,82051282051;4478,97435897436;4232,82051282051;4132,30769230769;4926,15384615385;1593;1738;73,661;16,5298309326172;0;0;0;0
26;0;0;4303,07692307692;4189,23076923077;4338,97435897436;4362,5641025641;4351,79487179487;4484,10256410256;4605,12820512821;4015,89743589744;4433,84615384615;4235,89743589744;4480;4235,38461538462;4135,89743589744;4932,82051282051;1594;1737;73,669;16,5298309326172;0;0;0;0
27;0;0;4312,30769230769;4189,74358974359;4340,51282051282;4361,53846153846;4354,35897435897;4491,79487179487;4609,74358974359;4024,10256410256;4442,5641025641;4246,66666666667;4491,79487179487;4239,48717948718;4143,07692307692;4941,02564102564;1592;1738;73,678;16,5298309326172;0;0;0;0
28;0;0;4315,38461538462;4187,17948717949;4342,05128205128;4352,82051282051;4351,79487179487;4488,20512820513;4606,15384615385;4025,64102564103;4443,58974358974;4251,28205128205;4497,4358974359;4242,5641025641;4143,07692307692;4942,05128205128;1593;1739;73,685;16,5298309326172;0;0;0;0
29;0;0;4321,53846153846;4189,23076923077;4347,17948717949;4361,02564102564;4352,82051282051;4492,82051282051;4609,74358974359;4026,15384615385;4442,5641025641;4259,48717948718;4502,05128205128;4246,15384615385;4143,58974358974;4943,07692307692;1591;1739;73,693;16,5298309326172;0;0;0;0
30;0;0;4324,10256410256;4186,66666666667;4347,69230769231;4366,66666666667;4354,8717948718;4499,48717948718;4611,28205128205;4025,12820512821;4441,02564102564;4268,71794871795;4507,17948717949;4248,20512820513;4144,10256410256;4943,58974358974;1591;1740;73,7;16,5298309326172;0;0;0;0
31;0;0;4312,82051282051;4179,48717948718;4344,61538461538;4352,30769230769;4352,30769230769;4490,76923076923;4596,92307692308;4016,92307692308;4434,35897435897;4257,94871794872;4499,48717948718;4246,66666666667;4139,48717948718;4942,05128205128;1591;1739;73,709;16,5298309326172;0;0;0;0
32;0;0;4309,23076923077;4176,92307692308;4347,17948717949;4346,15384615385;4349,23076923077;4485,64102564103;4591,79487179487;4013,84615384615;4430,76923076923;4245,12820512821;4491,79487179487;4245,12820512821;4140;4945,64102564103;1591;1740;73,717;16,5298309326172;0;0;0;0
33;0;0;4321,02564102564;4177,4358974359;4348,20512820513;4353,84615384615;4351,79487179487;4489,23076923077;4600;4015,38461538462;4429,74358974359;4248,20512820513;4494,8717948718;4246,66666666667;4143,07692307692;4946,15384615385;1590;1738;73,724;16,5298309326172;0;0;0;0
34;0;0;4322,5641025641;4175,38461538462;4341,53846153846;4353,84615384615;4353,33333333333;4487,69230769231;4596,41025641026;4012,82051282051;4425,12820512821;4245,64102564103;4491,79487179487;4248,20512820513;4137,94871794872;4937,4358974359;1591;1740;73,732;16,5298309326172;0;0;0;0
35;0;0;4316,92307692308;4178,97435897436;4343,07692307692;4353,33333333333;4351,28205128205;4485,12820512821;4592,30769230769;4013,84615384615;4424,61538461538;4236,41025641026;4484,61538461538;4247,69230769231;4133,33333333333;4936,92307692308;1592;1737;73,741;16,5298309326172;0;0;0;0
36;0;0;4315,89743589744;4185,12820512821;4351,79487179487;4360;4348,20512820513;4484,61538461538;4598,97435897436;4017,4358974359;4432,82051282051;4238,46153846154;4484,10256410256;4245,64102564103;4134,8717948718;4940;1592;1739;73,748;16,5298309326172;0;0;0;0
37;0;0;4311,79487179487;4187,69230769231;4348,20512820513;4361,53846153846;4348,20512820513;4485,12820512821;4603,07692307692;4017,94871794872;4437,94871794872;4248,71794871795;4487,69230769231;4245,12820512821;4135,89743589744;4933,84615384615;1593;1738;73,755;16,5298309326172;0;0;0;0
38;0;0;4309,23076923077;4187,69230769231;4340,51282051282;4354,8717948718;4351,28205128205;4490,25641025641;4603,58974358974;4021,53846153846;4438,46153846154;4252,82051282051;4490,76923076923;4245,12820512821;4134,35897435897;4929,23076923077;1592;1738;73,763;16,5298309326172;0;0;0;0
39;0;0;4308,71794871795;4185,12820512821;4334,8717948718;4350,25641025641;4352,82051282051;4490,25641025641;4604,10256410256;4022,5641025641;4438,46153846154;4242,5641025641;4486,15384615385;4240;4130,25641025641;4928,71794871795;1594;1738;73,771;16,5298309326172;0;0;0;0
40;0;0;4299,48717948718;4179,48717948718;4325,64102564103;4347,69230769231;4351,79487179487;4483,07692307692;4596,41025641026;4013,84615384615;4435,38461538462;4226,66666666667;4472,82051282051;4230,25641025641;4124,61538461538;4922,05128205128;1593;1737;73,779;16,5298309326172;0;0;0;0
41;0;0;4290,76923076923;4171,79487179487;4320;4341,02564102564;4352,30769230769;4484,61538461538;4590,76923076923;4008,71794871795;4431,28205128205;4215,89743589744;4462,5641025641;4227,69230769231;4121,53846153846;4912,30769230769;1594;1737;73,786;16,5298309326172;0;0;0;0
42;0;0;4291,79487179487;4171,79487179487;4321,02564102564;4340,51282051282;4353,84615384615;4490,25641025641;4590,76923076923;4009,23076923077;4429,23076923077;4208,71794871795;4461,53846153846;4231,28205128205;4118,97435897436;4914,8717948718;1594;1736;73,794;16,5298309326172;0;0;0;0
43;0;0;4294,8717948718;4178,46153846154;4324,10256410256;4349,74358974359;4352,82051282051;4485,64102564103;4588,71794871795;4006,15384615385;4425,64102564103;4204,61538461538;4462,5641025641;4235,38461538462;4118,97435897436;4920;1594;1737;73,803;16,5298309326172;0;0;0;0
44;0;0;4301,53846153846;4183,58974358974;4330,76923076923;4352,82051282051;4351,28205128205;4479,48717948718;4586,15384615385;4004,61538461539;4423,07692307692;4204,10256410256;4459,48717948718;4238,46153846154;4122,5641025641;4918,46153846154;1594;1737;73,811;16,5298309326172;0;0;0;0
45;0;0;4315,89743589744;4184,10256410256;4338,46153846154;4351,79487179487;4349,74358974359;4478,46153846154;4585,12820512821;4005,64102564103;4423,58974358974;4206,66666666667;4460,51282051282;4243,58974358974;4126,66666666667;4925,64102564103;1594;1738;73,818;16,5298309326172;0;0;0;0
46;0;0;4328,20512820513;4186,15384615385;4343,58974358974;4355,38461538462;4351,28205128205;4480;4588,20512820513;4006,15384615385;4428,20512820513;4216,92307692308;4469,23076923077;4253,33333333333;4136,41025641026;4944,61538461539;1594;1737;73,826;16,5298309326172;0;0;0;0
47;0;0;4327,69230769231;4189,74358974359;4347,17948717949;4355,38461538462;4353,33333333333;4482,05128205128;4591,79487179487;4008,71794871795;4434,35897435897;4231,79487179487;4480;4262,05128205128;4146,15384615385;4956,92307692308;1593;1738;73,833;16,5298309326172;0;0;0;0
48;0;0;4325,64102564103;4191,79487179487;4348,71794871795;4350,25641025641;4351,28205128205;4479,48717948718;4590,76923076923;4015,38461538462;4436,41025641026;4239,48717948718;4484,10256410256;4262,5641025641;4145,64102564103;4950,25641025641;1593;1737;73,841;16,5298309326172;0;0;0;0
49;0;0;4325,64102564103;4188,71794871795;4349,23076923077;4349,74358974359;4347,69230769231;4473,33333333333;4586,66666666667;4018,46153846154;4432,82051282051;4236,41025641026;4481,02564102564;4258,97435897436;4138,97435897436;4937,4358974359;1591;1737;73,849;16,5298309326172;0;0;0;0
50;0;0;4316,41025641026;4180;4342,5641025641;4350,76923076923;4345,64102564103;4469,74358974359;4582,05128205128;4012,82051282051;4427,69230769231;4225,12820512821;4474,8717948718;4255,38461538462;4131,79487179487;4932,82051282051;1592;1738;73,857;16,5298309326172;0;0;0;0
51;0;0;4304,61538461538;4175,38461538462;4329,74358974359;4346,66666666667;4348,20512820513;4472,30769230769;4578,97435897436;4009,23076923077;4425,64102564103;4215,89743589744;4468,71794871795;4252,30769230769;4127,69230769231;4935,89743589744;1592;1737;73,866;16,5298309326172;0;0;0;0
52;0;0;4298,97435897436;4177,94871794872;4325,64102564103;4343,07692307692;4352,30769230769;4475,89743589744;4576,92307692308;4012,30769230769;4428,20512820513;4215,38461538462;4465,64102564103;4251,28205128205;4130,25641025641;4931,79487179487;1591;1738;73,873;16,5298309326172;0;0;0;0
53;0;0;4295,89743589744;4177,94871794872;4325,12820512821;4344,61538461538;4354,35897435897;4475,89743589744;4574,35897435897;4013,84615384615;4428,71794871795;4211,79487179487;4463,58974358974;4250,25641025641;4130,76923076923;4918,97435897436;1592;1738;73,881;16,5298309326172;0;0;0;0
54;0;0;4292,30769230769;4175,89743589744;4323,58974358974;4347,69230769231;4351,79487179487;4473,84615384615;4567,69230769231;4010,25641025641;4427,17948717949;4203,58974358974;4459,48717948718;4249,74358974359;4123,58974358974;4916,41025641026;1591;1738;73,888;16,5298309326172;0;0;0;0
55;0;0;4295,38461538462;4177,4358974359;4327,69230769231;4345,12820512821;4348,71794871795;4474,8717948718;4563,07692307692;4007,17948717949;4426,66666666667;4201,53846153846;4456,92307692308;4256,41025641026;4122,05128205128;4923,58974358974;1591;1738;73,896;16,5298309326172;0;0;0;0
56;0;0;4301,53846153846;4176,92307692308;4334,35897435897;4342,5641025641;4350,25641025641;4476,92307692308;4555,38461538462;4005,64102564103;4424,61538461538;4197,4358974359;4453,84615384615;4257,94871794872;4125,64102564103;4925,12820512821;1590;1738;73,904;16,5298309326172;0;0;0;0
57;0;0;4299,48717948718;4174,35897435897;4330,76923076923;4346,15384615385;4353,84615384615;4471,79487179487;4538,97435897436;4002,05128205128;4420;4183,58974358974;4444,10256410256;4253,33333333333;4121,53846153846;4922,5641025641;1591;1738;73,912;16,5298309326172;0;0;0;0
58;0;0;4299,48717948718;4179,48717948718;4329,23076923077;4349,23076923077;4355,89743589744;4469,74358974359;4530,76923076923;4000,51282051282;4420,51282051282;4179,48717948718;4437,4358974359;4256,92307692308;4123,07692307692;4928,20512820513;1591;1739;73,919;16,5298309326172;0;0;0;0
59;0;0;4308,71794871795;4185,64102564103;4334,35897435897;4350,25641025641;4356,92307692308;4474,8717948718;4531,28205128205;4003,07692307692;4425,64102564103;4185,64102564103;4441,53846153846;4263,58974358974;4130,76923076923;4932,30769230769;1591;1738;73,927;16,5298309326172;0;0;0;0
60;0;0;4314,35897435897;4183,07692307692;4336,92307692308;4346,66666666667;4358,46153846154;4473,84615384615;4526,15384615385;4004,61538461539;4425,64102564103;4187,17948717949;4441,53846153846;4264,61538461538;4130,25641025641;4930,25641025641;1591;1739;73,935;16,5298309326172;0;0;0;0
61;0;0;4315,38461538462;4183,58974358974;4338,97435897436;4341,53846153846;4358,46153846154;4472,30769230769;4524,10256410256;4004,61538461539;4423,58974358974;4184,61538461538;4440;4268,20512820513;4129,23076923077;4933,84615384615;1592;1738;73,943;16,5298309326172;0;0;0;0
62;0;0;4322,05128205128;4190,25641025641;4344,10256410256;4343,58974358974;4356,92307692308;4480;4529,23076923077;4006,66666666667;4426,15384615385;4188,20512820513;4442,5641025641;4272,30769230769;4133,84615384615;4938,97435897436;1592;1739;73,951;16,5298309326172;0;0;0;0
63;0;0;4326,15384615385;4190,25641025641;4345,12820512821;4351,79487179487;4357,94871794872;4484,61538461538;4526,66666666667;4011,28205128205;4427,17948717949;4194,8717948718;4444,10256410256;4273,84615384615;4133,84615384615;4941,53846153846;1592;1739;73,959;16,5298309326172;0;0;0;0
64;0;466;4318,46153846154;4187,17948717949;4344,10256410256;4349,74358974359;4359,48717948718;4483,07692307692;4522,5641025641;4013,84615384615;4427,17948717949;4195,89743589744;4444,10256410256;4275,38461538462;4134,8717948718;4945,64102564103;1592;1741;73,966;17,0302600860596;0;0;0;0
65;0;410;4311,28205128205;4187,69230769231;4344,61538461538;4341,02564102564;4357,94871794872;4485,12820512821;4530,76923076923;4017,94871794872;4429,74358974359;4195,38461538462;4448,20512820513;4278,97435897436;4137,4358974359;4944,61538461539;1593;1739;73,974;17,0302600860596;0;0;0;0
66;0;497;4312,82051282051;4185,12820512821;4343,58974358974;4343,07692307692;4358,46153846154;4486,15384615385;4535,38461538462;4020,51282051282;4432,30769230769;4197,94871794872;4449,74358974359;4283,07692307692;4134,35897435897;4938,46153846154;1592;1740;73,982;17,0302600860596;0;0;0;0
67;0;504;4314,35897435897;4181,53846153846;4341,53846153846;4348,20512820513;4358,46153846154;4481,53846153846;4529,23076923077;4016,92307692308;4427,69230769231;4196,92307692308;4443,58974358974;4282,5641025641;4130,25641025641;4935,38461538462;1593;1739;73,99;17,0302600860596;0;0;0;0
68;0;502;4314,35897435897;4182,5641025641;4342,05128205128;4345,64102564103;4355,89743589744;4479,48717948718;4526,15384615385;4011,79487179487;4422,05128205128;4193,33333333333;4444,61538461538;4280,51282051282;4130,25641025641;4936,41025641026;1592;1739;73,999;17,0302600860596;0;0;0;0
69;0;486;4313,84615384615;4183,07692307692;4339,48717948718;4339,48717948718;4354,35897435897;4480;4526,15384615385;4010,25641025641;4422,05128205128;4189,23076923077;4444,10256410256;4282,05128205128;4127,17948717949;4934,35897435897;1593;1740;74,005;17,0302600860596;0;0;0;0
70;0;456;4310,25641025641;4177,4358974359;4335,89743589744;4338,46153846154;4354,35897435897;4475,89743589744;4520,51282051282;4008,71794871795;4421,02564102564;4176,92307692308;4430,25641025641;4278,46153846154;4122,5641025641;4925,64102564103;1593;1739;74,013;17,0302600860596;0;0;0;0
71;0;383;4308,71794871795;4178,97435897436;4339,48717948718;4342,5641025641;4357,4358974359;4473,84615384615;4515,89743589744;4008,20512820513;4421,02564102564;4171,79487179487;4424,61538461538;4275,89743589744;4124,61538461538;4924,61538461539;1593;1740;74,021;17,0302600860596;0;0;0;0
72;0;383;4311,28205128205;4189,23076923077;4343,07692307692;4343,58974358974;4361,02564102564;4476,41025641026;4514,8717948718;4007,17948717949;4424,61538461538;4181,02564102564;4431,79487179487;4282,5641025641;4128,20512820513;4934,35897435897;1593;1739;74,029;17,0302600860596;0;0;0;0
73;0;530;4308,20512820513;4188,20512820513;4334,8717948718;4337,4358974359;4357,94871794872;4470,76923076923;4506,66666666667;4000,51282051282;4424,10256410256;4175,38461538462;4426,66666666667;4288,71794871795;4125,64102564103;4933,33333333333;1593;1739;74,038;17,0302600860596;0;0;0;0
74;0;465;4305,64102564103;4182,05128205128;4330,76923076923;4336,41025641026;4354,8717948718;4465,12820512821;4500;3999,48717948718;4422,05128205128;4161,53846153846;4420;4287,69230769231;4126,66666666667;4930,76923076923;1593;1739;74,046;17,0302600860596;0;0;0;0
75;0;452;4308,71794871795;4183,58974358974;4338,97435897436;4338,97435897436;4359,48717948718;4469,74358974359;4505,64102564103;4004,61538461539;4422,05128205128;4166,15384615385;4424,61538461538;4291,28205128205;4131,79487179487;4940;1593;1740;74,053;17,0302600860596;0;0;0;0
76;0;352;4309,23076923077;4180,51282051282;4342,5641025641;4335,89743589744;4363,58974358974;4473,84615384615;4508,71794871795;4002,05128205128;4418,97435897436;4173,33333333333;4425,64102564103;4300;4132,30769230769;4943,58974358974;1593;1739;74,061;17,0302600860596;0;0;0;0
77;0;395;4312,82051282051;4175,89743589744;4338,46153846154;4334,8717948718;4363,07692307692;4475,38461538462;4504,61538461538;4001,53846153846;4419,48717948718;4169,23076923077;4424,10256410256;4303,58974358974;4133,84615384615;4942,05128205128;1592;1739;74,068;17,0302600860596;0;0;0;0
78;0;465;4316,41025641026;4178,46153846154;4340;4336,41025641026;4361,02564102564;4479,48717948718;4504,61538461538;4007,17948717949;4426,15384615385;4172,82051282051;4429,23076923077;4304,61538461538;4140;4947,69230769231;1594;1739;74,076;17,0302600860596;0;0;0;0
79;0;452;4307,17948717949;4176,92307692308;4339,48717948718;4328,71794871795;4361,02564102564;4478,97435897436;4505,12820512821;4008,20512820513;4427,69230769231;4177,94871794872;4431,79487179487;4305,64102564103;4142,05128205128;4952,82051282051;1592;1739;74,084;17,0302600860596;0;0;0;0
80;0;352;4301,53846153846;4171,28205128205;4329,23076923077;4325,64102564103;4360;4473,84615384615;4497,94871794872;4003,58974358974;4423,07692307692;4170,76923076923;4426,66666666667;4306,15384615385;4133,84615384615;4946,15384615385;1593;1740;74,091;17,0302600860596;0;0;0;0
81;0;395;4309,74358974359;4176,92307692308;4327,17948717949;4337,4358974359;4357,4358974359;4474,35897435897;4495,38461538462;4002,05128205128;4420;4165,12820512821;4421,02564102564;4307,69230769231;4128,71794871795;4939,48717948718;1593;1739;74,1;17,0302600860596;0;0;0;0
82;0;465;4320,51282051282;4187,17948717949;4340,51282051282;4338,97435897436;4356,41025641026;4478,46153846154;4502,05128205128;4003,58974358974;4424,10256410256;4168,20512820513;4422,05128205128;4313,33333333333;4137,94871794872;4945,64102564103;1592;1740;74,107;17,0302600860596;0;0;0;0
83;0;452;4323,07692307692;4187,17948717949;4347,17948717949;4329,74358974359;4358,46153846154;4475,38461538462;4501,53846153846;4004,61538461539;4423,58974358974;4173,33333333333;4424,61538461538;4321,53846153846;4146,66666666667;4954,35897435897;1593;1738;74,116;17,0302600860596;0;0;0;0
84;0;352;4321,53846153846;4183,58974358974;4343,07692307692;4330,25641025641;4358,97435897436;4467,69230769231;4493,33333333333;4001,02564102564;4415,89743589744;4167,69230769231;4420,51282051282;4323,07692307692;4141,02564102564;4953,84615384615;1592;1738;74,123;17,0302600860596;0;0;0;0
85;0;395;4321,02564102564;4184,61538461538;4342,5641025641;4334,35897435897;4356,41025641026;4467,17948717949;4490,76923076923;3996,92307692308;4414,35897435897;4154,8717948718;4411,28205128205;4322,05128205128;4133,84615384615;4947,69230769231;1592;1737;74,131;17,0302600860596;0;0;0;0
86;0;465;4321,02564102564;4185,64102564103;4343,07692307692;4331,79487179487;4357,94871794872;4473,84615384615;4494,35897435897;4000;4417,94871794872;4152,30769230769;4406,66666666667;4322,5641025641;4131,28205128205;4941,02564102564;1591;1737;74,138;17,0302600860596;0;0;0;0
87;0;452;4314,35897435897;4180;4335,89743589744;4328,71794871795;4361,53846153846;4473,84615384615;4494,35897435897;4002,5641025641;4415,38461538462;4149,23076923077;4402,05128205128;4318,97435897436;4123,58974358974;4931,79487179487;1591;1736;74,146;17,0302600860596;0;0;0;0
88;0;352;4307,69230769231;4174,8717948718;4333,84615384615;4327,69230769231;4360,51282051282;4469,74358974359;4493,84615384615;4001,53846153846;4413,84615384615;4138,97435897436;4395,89743589744;4318,46153846154;4118,97435897436;4929,74358974359;1591;1737;74,154;17,0302600860596;0;0;0;0
89;0;395;4316,41025641026;4180,51282051282;4342,5641025641;4329,74358974359;4364,10256410256;4474,8717948718;4501,02564102564;4006,15384615385;4423,07692307692;4150,76923076923;4404,10256410256;4328,20512820513;4130,76923076923;4942,5641025641;1592;1737;74,162;17,0302600860596;0;0;0;0
90;0;465;4328,20512820513;4188,71794871795;4345,12820512821;4329,23076923077;4369,74358974359;4484,10256410256;4505,64102564103;4011,28205128205;4428,71794871795;4173,84615384615;4416,41025641026;4335,89743589744;4140,51282051282;4947,69230769231;1590;1737;74,17;17,0302600860596;0;0;0;0
91;0;452;4323,07692307692;4186,15384615385;4339,48717948718;4324,61538461538;4367,17948717949;4484,10256410256;4502,5641025641;4009,23076923077;4425,64102564103;4173,33333333333;4417,94871794872;4336,92307692308;4134,8717948718;4939,48717948718;1592;1737;74,177;17,0302600860596;0;0;0;0
92;0;352;4319,48717948718;4183,07692307692;4340;4328,71794871795;4362,5641025641;4482,5641025641;4501,53846153846;4009,23076923077;4424,61538461538;4165,12820512821;4417,4358974359;4340;4135,89743589744;4944,61538461539;1591;1735;74,186;17,0302600860596;0;0;0;0
93;0;395;4323,58974358974;4187,69230769231;4344,61538461538;4331,28205128205;4360,51282051282;4485,64102564103;4502,5641025641;4011,79487179487;4425,64102564103;4173,33333333333;4422,05128205128;4344,61538461538;4146,15384615385;4958,46153846154;1591;1737;74,193;17,0302600860596;0;0;0;0
94;0;465;4323,07692307692;4188,71794871795;4345,12820512821;4324,10256410256;4362,05128205128;4486,15384615385;4502,5641025641;4009,23076923077;4426,15384615385;4180,51282051282;4426,66666666667;4350,25641025641;4147,17948717949;4959,48717948718;1592;1733;74,201;17,0302600860596;0;0;0;0
95;0;452;4318,46153846154;4182,5641025641;4343,58974358974;4321,53846153846;4363,07692307692;4478,46153846154;4503,07692307692;4008,71794871795;4425,64102564103;4174,8717948718;4424,10256410256;4357,4358974359;4145,12820512821;4954,35897435897;1592;1734;74,209;17,0302600860596;0;0;0;0
96;0;352;4322,5641025641;4181,02564102564;4344,10256410256;4325,12820512821;4358,46153846154;4468,20512820513;4501,02564102564;4005,12820512821;4420;4167,69230769231;4415,89743589744;4360;4140,51282051282;4950,76923076923;1593;1734;74,217;17,0302600860596;0;0;0;0
97;0;395;4331,79487179487;4189,23076923077;4348,71794871795;4326,15384615385;4356,92307692308;4466,15384615385;4501,53846153846;4004,10256410256;4417,4358974359;4167,17948717949;4414,35897435897;4364,10256410256;4137,94871794872;4952,82051282051;1592;1737;74,224;17,0302600860596;0;0;0;0
98;0;465;4332,30769230769;4194,35897435897;4351,79487179487;4324,61538461538;4365,12820512821;4471,79487179487;4507,17948717949;4010,76923076923;4423,07692307692;4174,35897435897;4422,05128205128;4370,76923076923;4145,64102564103;4962,5641025641;1593;1738;74,233;17,0302600860596;0;0;0;0
99;0;452;4330,25641025641;4191,28205128205;4351,79487179487;4324,10256410256;4369,74358974359;4477,94871794872;4508,20512820513;4014,8717948718;4426,66666666667;4182,05128205128;4426,66666666667;4369,74358974359;4150,76923076923;4964,10256410256;1593;1739;74,241;17,0302600860596;0;0;0;0
100;0;352;4330,25641025641;4191,28205128205;4353,84615384615;4329,74358974359;4367,69230769231;4481,02564102564;4506,66666666667;4012,30769230769;4427,17948717949;4186,66666666667;4428,71794871795;4366,15384615385;4146,15384615385;4956,92307692308;1593;1738;74,248;17,0302600860596;0;0;0;0
101;0;395;4326,15384615385;4192,30769230769;4353,84615384615;4335,38461538462;4368,20512820513;4485,64102564103;4510,76923076923;4014,35897435898;4430,76923076923;4189,23076923077;4429,74358974359;4368,20512820513;4139,48717948718;4952,30769230769;1593;1739;74,256;17,0302600860596;0;0;0;0
102;0;465;4316,92307692308;4183,07692307692;4346,66666666667;4329,74358974359;4369,23076923077;4491,28205128205;4513,84615384615;4020,51282051282;4432,82051282051;4183,58974358974;4427,17948717949;4369,23076923077;4136,41025641026;4946,66666666667;1594;1742;74,263;17,0302600860596;0;0;0;0
103;0;452;4310,25641025641;4172,82051282051;4341,02564102564;4318,46153846154;4369,74358974359;4490,25641025641;4511,79487179487;4021,02564102564;4435,38461538462;4175,89743589744;4423,58974358974;4368,20512820513;4133,33333333333;4942,5641025641;1593;1742;74,271;17,0302600860596;0;0;0;0
104;0;352;4311,28205128205;4175,89743589744;4342,5641025641;4315,89743589744;4371,28205128205;4490,25641025641;4511,28205128205;4021,02564102564;4437,94871794872;4176,92307692308;4424,10256410256;4369,74358974359;4131,28205128205;4941,53846153846;1592;1743;74,279;17,0302600860596;0;0;0;0
105;0;395;4314,8717948718;4180,51282051282;4342,5641025641;4319,48717948718;4372,82051282051;4496,92307692308;4513,84615384615;4019,48717948718;4433,84615384615;4177,4358974359;4424,61538461538;4373,33333333333;4131,28205128205;4942,05128205128;1594;1742;74,287;17,0302600860596;0;0;0;0
106;0;465;4314,8717948718;4178,97435897436;4340;4322,5641025641;4370,25641025641;4493,33333333333;4511,28205128205;4015,38461538462;4425,64102564103;4170,25641025641;4419,48717948718;4374,8717948718;4132,82051282051;4944,10256410256;1592;1742;74,295;17,0302600860596;0;0;0;0
107;0;452;4308,71794871795;4178,46153846154;4337,4358974359;4320;4366,66666666667;4478,97435897436;4503,07692307692;4012,82051282051;4425,64102564103;4166,66666666667;4415,38461538462;4377,4358974359;4132,82051282051;4942,05128205128;1594;1742;74,304;17,0302600860596;0;0;0;0
108;0;352;4308,71794871795;4178,46153846154;4338,97435897436;4315,38461538462;4366,15384615385;4478,46153846154;4501,02564102564;4016,41025641026;4430,25641025641;4168,71794871795;4416,41025641026;4380,51282051282;4132,30769230769;4942,05128205128;1593;1741;74,311;17,0302600860596;0;0;0;0
109;0;395;4312,30769230769;4174,8717948718;4338,97435897436;4314,35897435897;4367,17948717949;4485,64102564103;4502,5641025641;4015,89743589744;4428,71794871795;4164,10256410256;4413,84615384615;4378,97435897436;4135,38461538462;4947,17948717949;1593;1742;74,318;17,0302600860596;0;0;0;0
110;0;465;4304,61538461538;4169,23076923077;4329,74358974359;4308,20512820513;4365,64102564103;4480;4496,41025641026;4006,66666666667;4422,5641025641;4147,69230769231;4400,51282051282;4372,82051282051;4131,28205128205;4940,51282051282;1593;1742;74,327;17,0302600860596;0;0;0;0
111;0;452;4296,41025641026;4169,23076923077;4324,10256410256;4303,07692307692;4366,66666666667;4478,46153846154;4496,92307692308;4005,12820512821;4422,05128205128;4134,35897435897;4387,69230769231;4372,82051282051;4123,58974358974;4929,23076923077;1593;1742;74,334;17,0302600860596;0;0;0;0
112;0;352;4304,10256410256;4177,94871794872;4331,28205128205;4314,8717948718;4373,84615384615;4493,84615384615;4511,28205128205;4019,48717948718;4435,89743589744;4143,58974358974;4390,25641025641;4382,05128205128;4126,15384615385;4934,8717948718;1593;1741;74,343;17,0302600860596;0;0;0;0
113;0;395;4306,66666666667;4181,53846153846;4333,33333333333;4323,07692307692;4375,89743589744;4501,02564102564;4520;4028,71794871795;4446,66666666667;4157,94871794872;4398,46153846154;4384,10256410256;4130,76923076923;4937,94871794872;1594;1740;74,349;17,0302600860596;0;0;0;0
114;0;465;4289,23076923077;4171,79487179487;4320,51282051282;4310,76923076923;4369,74358974359;4491,28205128205;4514,35897435897;4023,07692307692;4436,92307692308;4149,23076923077;4397,94871794872;4376,92307692308;4124,61538461538;4928,20512820513;1593;1740;74,357;17,0302600860596;0;0;0;0
115;0;452;4280,51282051282;4165,64102564103;4319,48717948718;4305,12820512821;4367,69230769231;4488,71794871795;4508,71794871795;4018,97435897436;4428,20512820513;4135,38461538462;4388,71794871795;4375,89743589744;4117,94871794872;4927,69230769231;1594;1740;74,365;17,0302600860596;0;0;0;0
116;0;352;4295,89743589744;4169,23076923077;4336,92307692308;4318,97435897436;4368,71794871795;4495,89743589744;4512,30769230769;4018,46153846154;4433,33333333333;4140;4389,23076923077;4385,64102564103;4124,61538461538;4933,84615384615;1593;1740;74,374;17,0302600860596;0;0;0;0
117;0;395;4310,25641025641;4175,89743589744;4350,25641025641;4323,58974358974;4370,25641025641;4500,51282051282;4519,48717948718;4018,46153846154;4438,97435897436;4155,38461538462;4400,51282051282;4395,89743589744;4136,41025641026;4938,97435897436;1595;1740;74,382;17,0302600860596;0;0;0;0
118;0;465;4308,71794871795;4177,94871794872;4346,66666666667;4315,38461538462;4371,28205128205;4497,4358974359;4520,51282051282;4018,97435897436;4434,35897435897;4160,51282051282;4403,58974358974;4394,35897435897;4136,92307692308;4941,02564102564;1593;1740;74,389;17,0302600860596;0;0;0;0
119;0;452;4308,71794871795;4173,84615384615;4338,46153846154;4312,82051282051;4368,71794871795;4491,28205128205;4512,82051282051;4017,4358974359;4430,25641025641;4153,33333333333;4397,4358974359;4391,79487179487;4124,61538461538;4933,84615384615;1595;1740;74,397;17,0302600860596;0;0;0;0
120;0;352;4318,46153846154;4173,84615384615;4343,07692307692;4316,92307692308;4368,20512820513;4489,23076923077;4510,25641025641;4017,4358974359;4430,25641025641;4149,74358974359;4395,89743589744;4398,97435897436;4122,05128205128;4928,20512820513;1593;1741;74,406;17,0302600860596;0;0;0;0
121;0;395;4312,82051282051;4174,8717948718;4346,15384615385;4313,33333333333;4370,25641025641;4488,71794871795;4509,23076923077;4014,35897435898;4426,66666666667;4146,15384615385;4393,84615384615;4401,02564102564;4123,58974358974;4928,71794871795;1593;1742;74,413;17,0302600860596;0;0;0;0
122;0;465;4296,41025641026;4173,33333333333;4337,4358974359;4306,15384615385;4368,71794871795;4487,69230769231;4503,58974358974;4007,17948717949;4425,12820512821;4138,97435897436;4389,23076923077;4396,41025641026;4120;4928,20512820513;1594;1740;74,421;17,0302600860596;0;0;0;0
123;0;452;4301,53846153846;4175,89743589744;4331,79487179487;4311,28205128205;4369,23076923077;4490,25641025641;4504,61538461538;4007,17948717949;4427,69230769231;4138,46153846154;4389,23076923077;4396,41025641026;4119,48717948718;4928,20512820513;1593;1741;74,43;17,0302600860596;0;0;0;0
124;0;352;4309,23076923077;4175,89743589744;4328,20512820513;4314,8717948718;4369,23076923077;4490,76923076923;4507,69230769231;4011,28205128205;4427,69230769231;4136,41025641026;4383,58974358974;4395,38461538462;4116,41025641026;4924,61538461539;1594;1740;74,437;17,0302600860596;0;0;0;0
125;0;395;4296,41025641026;4168,71794871795;4322,05128205128;4307,69230769231;4364,10256410256;4486,66666666667;4504,61538461538;4010,76923076923;4427,69230769231;4125,64102564103;4372,82051282051;4388,20512820513;4111,28205128205;4919,48717948718;1592;1740;74,443;17,0302600860596;0;0;0;0
126;0;465;4288,71794871795;4167,69230769231;4319,48717948718;4309,23076923077;4365,12820512821;4486,66666666667;4505,12820512821;4013,33333333333;4430,25641025641;4119,48717948718;4375,89743589744;4387,17948717949;4114,35897435897;4921,02564102564;1593;1741;74,451;17,0302600860596;0;0;0;0
127;0;452;4289,23076923077;4170,25641025641;4318,46153846154;4311,79487179487;4369,23076923077;4489,74358974359;4510,76923076923;4019,48717948718;4432,30769230769;4121,53846153846;4380,51282051282;4390,25641025641;4115,38461538462;4916,41025641026;1593;1740;74,462;17,0302600860596;0;0;0;0
128;0;352;4280,51282051282;4166,66666666667;4312,30769230769;4300,51282051282;4364,61538461538;4488,71794871795;4507,17948717949;4018,97435897436;4432,82051282051;4111,79487179487;4366,15384615385;4386,15384615385;4106,66666666667;4901,53846153846;1593;1740;74,469;17,5306911468506;0;0;0;0
0;0;466;4282,5641025641;4166,66666666667;4312,30769230769;4301,53846153846;4360;4489,74358974359;4505,64102564103;4017,4358974359;4434,8717948718;4102,5641025641;4359,48717948718;4384,61538461538;4107,17948717949;4906,15384615385;1592;1740;74,475;17,5306911468506;0;0;0;0
1;0;410;4295,89743589744;4173,33333333333;4321,53846153846;4319,48717948718;4365,12820512821;4493,84615384615;4516,92307692308;4018,97435897436;4434,35897435897;4111,79487179487;4372,30769230769;4395,89743589744;4122,05128205128;4926,66666666667;1593;1741;74,483;17,5306911468506;0;0;0;0
2;0;497;4302,05128205128;4180,51282051282;4332,82051282051;4321,53846153846;4366,15384615385;4494,35897435897;4521,02564102564;4020,51282051282;4430,25641025641;4120,51282051282;4378,97435897436;4403,58974358974;4127,69230769231;4933,33333333333;1592;1740;74,493;17,5306911468506;0;0;0;0
3;0;504;4313,84615384615;4186,15384615385;4343,58974358974;4315,89743589744;4363,58974358974;4489,23076923077;4518,97435897436;4021,53846153846;4427,17948717949;4127,17948717949;4382,05128205128;4406,66666666667;4126,15384615385;4936,92307692308;1593;1741;74,5;17,5306911468506;0;0;0;0
4;0;502;4325,64102564103;4186,15384615385;4346,66666666667;4320,51282051282;4366,66666666667;4483,58974358974;4517,94871794872;4016,92307692308;4424,61538461538;4139,48717948718;4389,74358974359;4413,33333333333;4131,79487179487;4949,23076923077;1593;1737;74,508;17,5306911468506;0;0;0;0
5;0;486;4322,05128205128;4182,05128205128;4342,5641025641;4321,53846153846;4366,15384615385;4479,48717948718;4510,76923076923;4011,79487179487;4423,07692307692;4142,5641025641;4390,76923076923;4416,41025641026;4139,48717948718;4952,82051282051;1592;1738;74,515;17,5306911468506;0;0;0;0
6;0;456;4326,15384615385;4186,66666666667;4348,20512820513;4323,58974358974;4360,51282051282;4479,48717948718;4505,64102564103;4013,84615384615;4424,10256410256;4146,15384615385;4393,84615384615;4418,46153846154;4141,02564102564;4952,82051282051;1594;1737;74,522;17,5306911468506;0;0;0;0
7;0;383;4342,05128205128;4195,38461538462;4356,92307692308;4328,20512820513;4364,10256410256;4482,05128205128;4508,20512820513;4014,8717948718;4425,12820512821;4161,53846153846;4406,66666666667;4427,17948717949;4146,66666666667;4965,12820512821;1593;1738;74,529;17,5306911468506;0;0;0;0
8;0;383;4345,64102564103;4193,84615384615;4356,92307692308;4327,69230769231;4370,25641025641;4484,61538461538;4509,74358974359;4013,84615384615;4426,66666666667;4173,84615384615;4414,8717948718;4430,76923076923;4160,51282051282;4979,48717948718;1595;1739;74,54;17,5306911468506;0;0;0;0
9;0;530;4347,69230769231;4194,35897435897;4353,84615384615;4327,17948717949;4368,71794871795;4485,64102564103;4508,20512820513;4015,89743589744;4430,25641025641;4179,48717948718;4416,92307692308;4428,71794871795;4168,20512820513;4982,05128205128;1595;1738;74,547;17,5306911468506;0;0;0;0
10;0;465;4362,05128205128;4202,5641025641;4352,82051282051;4329,74358974359;4365,12820512821;4485,12820512821;4508,71794871795;4016,92307692308;4433,84615384615;4189,23076923077;4422,05128205128;4430,76923076923;4169,23076923077;4984,61538461539;1594;1740;74,553;17,5306911468506;0;0;0;0
11;0;452;4367,17948717949;4203,58974358974;4349,74358974359;4328,71794871795;4363,58974358974;4486,66666666667;4513,84615384615;4017,4358974359;4433,33333333333;4196,92307692308;4428,71794871795;4432,30769230769;4170,25641025641;4989,74358974359;1594;1739;74,561;17,5306911468506;0;0;0;0
12;0;352;4361,02564102564;4198,97435897436;4345,12820512821;4325,64102564103;4362,05128205128;4485,12820512821;4516,92307692308;4019,48717948718;4429,23076923077;4192,82051282051;4426,66666666667;4426,15384615385;4165,64102564103;4982,05128205128;1594;1740;74,57;17,5306911468506;0;0;0;0
13;0;395;4371,28205128205;4205,12820512821;4343,58974358974;4330,25641025641;4358,46153846154;4477,94871794872;4508,71794871795;4012,30769230769;4424,10256410256;4186,15384615385;4422,5641025641;4421,53846153846;4163,07692307692;4982,05128205128;1594;1739;74,578;17,5306911468506;0;0;0;0
14;0;465;4405,64102564103;4220,51282051282;4350,76923076923;4337,4358974359;4355,89743589744;4477,4358974359;4498,46153846154;4003,07692307692;4420;4195,38461538462;4426,66666666667;4428,71794871795;4180,51282051282;5010,25641025641;1593;1740;74,584;17,5306911468506;0;0;0;0
15;0;452;4438,97435897436;4227,69230769231;4363,07692307692;4338,46153846154;4356,92307692308;4483,07692307692;4498,97435897436;4002,5641025641;4421,53846153846;4216,41025641026;4437,94871794872;4438,46153846154;4202,05128205128;5040;1594;1740;74,593;17,5306911468506;0;0;0;0
16;0;0;4452,82051282051;4227,69230769231;4370,25641025641;4342,05128205128;4358,97435897436;4481,53846153846;4501,02564102564;4005,12820512821;4425,12820512821;4231,28205128205;4450,25641025641;4442,05128205128;4207,17948717949;5047,17948717949;1592;1740;74,603;17,5306911468506;0;0;0;0
17;0;0;4454,35897435897;4232,82051282051;4377,4358974359;4348,71794871795;4358,46153846154;4475,89743589744;4499,48717948718;4005,64102564103;4425,64102564103;4242,5641025641;4460;4443,58974358974;4209,74358974359;5051,28205128205;1594;1740;74,608;17,5306911468506;0;0;0;0
18;0;0;4459,48717948718;4239,48717948718;4385,12820512821;4350,76923076923;4355,89743589744;4472,30769230769;4498,97435897436;4005,64102564103;4424,10256410256;4259,48717948718;4470,25641025641;4450,76923076923;4216,92307692308;5060;1592;1740;74,616;17,5306911468506;0;0;0;0
19;0;0;4464,61538461538;4240;4383,07692307692;4347,69230769231;4356,41025641026;4470,76923076923;4497,94871794872;4005,12820512821;4426,15384615385;4271,28205128205;4481,53846153846;4455,89743589744;4222,05128205128;5063,07692307692;1594;1740;74,623;17,5306911468506;0;0;0;0
20;0;0;4455,89743589744;4233,33333333333;4377,94871794872;4343,58974358974;4356,92307692308;4472,82051282051;4498,46153846154;4007,17948717949;4428,71794871795;4274,8717948718;4488,71794871795;4456,41025641026;4220;5058,46153846154;1593;1739;74,631;17,5306911468506;0;0;0;0
21;0;0;4440;4226,15384615385;4380;4341,02564102564;4354,35897435897;4478,46153846154;4506,66666666667;4010,76923076923;4428,20512820513;4279,48717948718;4492,30769230769;4458,97435897436;4217,4358974359;5055,89743589744;1594;1741;74,641;17,5306911468506;0;0;0;0
22;0;0;4425,64102564103;4221,02564102564;4378,97435897436;4342,05128205128;4354,8717948718;4482,05128205128;4510,25641025641;4011,79487179487;4425,64102564103;4280,51282051282;4490,76923076923;4456,41025641026;4213,33333333333;5052,30769230769;1594;1740;74,648;17,5306911468506;0;0;0;0
23;0;0;4410,76923076923;4211,28205128205;4365,64102564103;4338,46153846154;4355,38461538462;4477,4358974359;4498,97435897436;4004,61538461539;4418,46153846154;4263,07692307692;4479,48717948718;4448,71794871795;4195,38461538462;5028,71794871795;1594;1741;74,655;17,5306911468506;0;0;0;0
24;0;0;4402,05128205128;4205,64102564103;4360,51282051282;4331,79487179487;4353,84615384615;4470,76923076923;4495,89743589744;4000;4418,46153846154;4241,53846153846;4470,25641025641;4447,69230769231;4180;5008,20512820513;1595;1740;74,663;17,5306911468506;0;0;0;0
25;0;0;4396,92307692308;4210,25641025641;4366,66666666667;4334,8717948718;4355,38461538462;4473,33333333333;4508,71794871795;4007,17948717949;4426,15384615385;4242,5641025641;4471,28205128205;4451,79487179487;4184,10256410256;5014,35897435897;1595;1741;74,671;17,5306911468506;0;0;0;0
26;0;0;4381,53846153846;4206,66666666667;4362,05128205128;4336,92307692308;4359,48717948718;4478,46153846154;4508,71794871795;4009,23076923077;4421,53846153846;4242,5641025641;4469,74358974359;4446,66666666667;4183,07692307692;5012,30769230769;1596;1740;74,678;17,5306911468506;0;0;0;0
27;0;0;4371,28205128205;4197,4358974359;4353,84615384615;4329,23076923077;4361,02564102564;4476,41025641026;4499,48717948718;4004,10256410256;4416,92307692308;4226,66666666667;4460,51282051282;4442,5641025641;4171,28205128205;4996,41025641026;1595;1741;74,686;17,5306911468506;0;0;0;0
28;0;0;4366,66666666667;4198,97435897436;4351,79487179487;4325,12820512821;4360;4471,79487179487;4502,5641025641;4007,69230769231;4424,61538461538;4218,97435897436;4452,82051282051;4442,5641025641;4164,61538461538;4986,15384615385;1596;1740;74,696;17,5306911468506;0;0;0;0
29;0;0;4351,79487179487;4197,94871794872;4346,15384615385;4330,25641025641;4362,05128205128;4470,76923076923;4505,12820512821;4008,71794871795;4427,17948717949;4213,33333333333;4443,07692307692;4433,33333333333;4155,38461538462;4971,79487179487;1595;1739;74,702;17,5306911468506;0;0;0;0
30;0;0;4340,51282051282;4190,76923076923;4337,94871794872;4333,84615384615;4364,10256410256;4472,82051282051;4497,4358974359;3999,48717948718;4423,58974358974;4192,30769230769;4431,79487179487;4424,61538461538;4143,58974358974;4955,38461538462;1595;1740;74,709;17,5306911468506;0;0;0;0
31;0;0;4335,89743589744;4188,71794871795;4332,30769230769;4329,23076923077;4360;4474,8717948718;4495,38461538462;3996,92307692308;4422,05128205128;4173,84615384615;4422,05128205128;4423,58974358974;4134,8717948718;4946,66666666667;1594;1739;74,717;17,7809047698975;0;0;0;0
32;0;0;4320,51282051282;4184,10256410256;4321,53846153846;4318,46153846154;4356,92307692308;4471,79487179487;4502,05128205128;4000;4418,46153846154;4161,53846153846;4409,23076923077;4419,48717948718;4128,71794871795;4940,51282051282;1594;1740;74,726;17,7809047698975;0;0;0;0
33;0;0;4305,64102564103;4175,89743589744;4311,79487179487;4313,84615384615;4356,92307692308;4473,33333333333;4502,5641025641;4002,05128205128;4416,92307692308;4144,10256410256;4397,4358974359;4415,89743589744;4128,20512820513;4938,97435897436;1594;1738;74,733;17,7809047698975;0;0;0;0
34;0;0;4302,5641025641;4172,30769230769;4311,28205128205;4318,97435897436;4355,38461538462;4480,51282051282;4499,48717948718;4004,61538461539;4421,02564102564;4130,25641025641;4390,25641025641;4420;4125,64102564103;4935,38461538462;1593;1740;74,74;17,7809047698975;0;0;0;0
35;0;0;4298,97435897436;4170,25641025641;4310,76923076923;4321,02564102564;4351,28205128205;4481,53846153846;4503,58974358974;4005,64102564103;4423,07692307692;4121,53846153846;4383,07692307692;4419,48717948718;4117,4358974359;4921,53846153846;1594;1739;74,748;17,7809047698975;0;0;0;0
36;0;0;4295,89743589744;4167,69230769231;4307,69230769231;4317,94871794872;4351,79487179487;4479,48717948718;4508,20512820513;4004,10256410256;4418,97435897436;4111,79487179487;4371,28205128205;4412,82051282051;4112,82051282051;4915,38461538462;1593;1740;74,756;17,7809047698975;0;0;0;0
37;0;0;4296,92307692308;4163,58974358974;4306,15384615385;4315,38461538462;4352,30769230769;4477,94871794872;4502,5641025641;4002,5641025641;4416,41025641026;4101,53846153846;4361,53846153846;4415,38461538462;4111,79487179487;4920;1593;1739;74,764;17,7809047698975;0;0;0;0
38;0;0;4297,94871794872;4162,05128205128;4304,10256410256;4314,8717948718;4347,69230769231;4474,8717948718;4495,89743589744;4000;4417,4358974359;4090,76923076923;4360,51282051282;4418,46153846154;4110,76923076923;4923,07692307692;1593;1740;74,773;17,7809047698975;0;0;0;0
39;0;0;4303,07692307692;4167,17948717949;4309,74358974359;4314,8717948718;4346,15384615385;4475,89743589744;4498,97435897436;3999,48717948718;4419,48717948718;4089,23076923077;4362,05128205128;4419,48717948718;4117,4358974359;4930,76923076923;1593;1740;74,781;17,7809047698975;0;0;0;0
40;0;0;4304,10256410256;4169,23076923077;4316,41025641026;4314,8717948718;4349,74358974359;4476,92307692308;4500,51282051282;3999,48717948718;4418,46153846154;4089,23076923077;4355,89743589744;4419,48717948718;4122,05128205128;4935,38461538462;1593;1741;74,787;17,7809047698975;0;0;0;0
41;0;0;4297,4358974359;4161,53846153846;4313,33333333333;4315,38461538462;4348,20512820513;4470,25641025641;4492,82051282051;3991,79487179487;4412,30769230769;4074,8717948718;4344,10256410256;4413,84615384615;4114,35897435897;4927,17948717949;1593;1740;74,795;17,7809047698975;0;0;0;0
42;0;0;4298,97435897436;4162,05128205128;4308,20512820513;4314,35897435897;4346,66666666667;4469,23076923077;4493,84615384615;3989,74358974359;4412,82051282051;4068,20512820513;4341,53846153846;4412,82051282051;4110,25641025641;4919,48717948718;1593;1741;74,803;17,7809047698975;0;0;0;0
43;0;0;4303,07692307692;4166,66666666667;4309,23076923077;4314,35897435897;4348,20512820513;4474,8717948718;4501,02564102564;3996,41025641026;4420;4073,84615384615;4343,07692307692;4417,94871794872;4110,76923076923;4915,89743589744;1594;1740;74,811;17,7809047698975;0;0;0;0
44;0;0;4295,38461538462;4159,48717948718;4309,23076923077;4312,30769230769;4348,71794871795;4469,74358974359;4497,94871794872;3994,8717948718;4417,94871794872;4065,12820512821;4334,35897435897;4415,38461538462;4105,12820512821;4912,30769230769;1594;1741;74,819;17,7809047698975;0;0;0;0
45;0;0;4286,15384615385;4156,41025641026;4304,10256410256;4309,74358974359;4350,25641025641;4462,05128205128;4495,89743589744;3990,25641025641;4412,30769230769;4053,33333333333;4327,69230769231;4411,28205128205;4100,51282051282;4913,33333333333;1594;1741;74,826;17,7809047698975;0;0;0;0
46;0;0;4287,17948717949;4163,07692307692;4302,5641025641;4311,28205128205;4352,30769230769;4465,64102564103;4502,5641025641;3996,92307692308;4416,41025641026;4058,46153846154;4332,82051282051;4416,41025641026;4105,64102564103;4915,89743589744;1593;1742;74,834;17,7809047698975;0;0;0;0
47;0;0;4289,74358974359;4163,58974358974;4306,66666666667;4312,30769230769;4349,23076923077;4467,69230769231;4505,64102564103;4003,07692307692;4419,48717948718;4061,02564102564;4336,41025641026;4417,94871794872;4109,74358974359;4912,30769230769;1594;1741;74,843;17,9060134887695;0;0;0;0
48;0;0;4284,61538461538;4158,97435897436;4307,17948717949;4310,76923076923;4344,10256410256;4463,58974358974;4502,5641025641;4000,51282051282;4414,8717948718;4051,79487179487;4330,76923076923;4413,84615384615;4106,66666666667;4911,28205128205;1593;1741;74,851;17,9060134887695;0;0;0;0
49;0;0;4279,48717948718;4160;4302,05128205128;4311,28205128205;4345,64102564103;4465,64102564103;4500,51282051282;3996,41025641026;4415,89743589744;4050,76923076923;4328,71794871795;4416,92307692308;4107,17948717949;4917,4358974359;1594;1742;74,858;17,9060134887695;0;0;0;0
50;0;0;4286,15384615385;4163,58974358974;4300;4311,28205128205;4348,71794871795;4467,69230769231;4497,94871794872;3993,84615384615;4414,8717948718;4052,82051282051;4326,66666666667;4417,94871794872;4108,71794871795;4919,48717948718;1594;1741;74,866;17,9060134887695;0;0;0;0
51;0;0;4300,51282051282;4162,05128205128;4302,05128205128;4307,69230769231;4347,17948717949;4459,48717948718;4490,76923076923;3992,30769230769;4407,69230769231;4045,12820512821;4318,97435897436;4417,94871794872;4108,71794871795;4918,46153846154;1593;1742;74,873;17,9372901916504;0;0;0;0
52;0;0;4306,66666666667;4161,02564102564;4307,69230769231;4308,71794871795;4344,10256410256;4456,92307692308;4487,69230769231;3994,35897435898;4411,28205128205;4043,58974358974;4318,46153846154;4424,10256410256;4111,28205128205;4922,05128205128;1594;1741;74,881;17,9372901916504;0;0;0;0
53;0;0;4304,61538461538;4164,61538461538;4314,8717948718;4314,35897435897;4345,64102564103;4462,05128205128;4493,84615384615;3994,8717948718;4415,38461538462;4053,33333333333;4324,61538461538;4424,61538461538;4112,30769230769;4925,64102564103;1594;1742;74,889;17,9372901916504;0;0;0;0
54;0;0;4298,97435897436;4166,66666666667;4311,79487179487;4314,35897435897;4346,15384615385;4458,97435897436;4493,84615384615;3991,79487179487;4409,23076923077;4053,33333333333;4324,61538461538;4417,4358974359;4106,66666666667;4921,02564102564;1595;1742;74,897;17,9372901916504;0;0;0;0
55;0;0;4292,30769230769;4161,02564102564;4300,51282051282;4309,23076923077;4344,10256410256;4454,35897435897;4486,66666666667;3989,23076923077;4408,71794871795;4038,97435897436;4317,94871794872;4413,33333333333;4103,07692307692;4915,89743589744;1594;1742;74,905;17,9372901916504;0;0;0;0
56;0;0;4286,15384615385;4152,82051282051;4291,79487179487;4304,10256410256;4343,07692307692;4452,82051282051;4485,12820512821;3985,64102564103;4410,25641025641;4027,17948717949;4309,23076923077;4410,76923076923;4101,53846153846;4911,28205128205;1594;1741;74,912;17,9372901916504;0;0;0;0
57;0;0;4278,97435897436;4150,25641025641;4284,10256410256;4302,5641025641;4342,5641025641;4450,25641025641;4487,69230769231;3982,05128205128;4405,12820512821;4020,51282051282;4301,02564102564;4404,10256410256;4095,38461538462;4904,10256410256;1594;1742;74,92;17,9372901916504;0;0;0;0
58;0;0;4274,8717948718;4153,33333333333;4283,58974358974;4309,74358974359;4345,64102564103;4456,92307692308;4491,28205128205;3988,71794871795;4408,71794871795;4017,4358974359;4300,51282051282;4402,5641025641;4095,38461538462;4903,07692307692;1595;1741;74,928;17,9372901916504;0;0;0;0
59;0;0;4278,97435897436;4157,94871794872;4287,69230769231;4314,35897435897;4349,74358974359;4467,69230769231;4496,92307692308;3996,41025641026;4417,94871794872;4020;4303,58974358974;4404,61538461538;4098,46153846154;4903,07692307692;1593;1741;74,936;17,9372901916504;0;0;0;0
60;0;0;4284,10256410256;4159,48717948718;4287,17948717949;4311,28205128205;4349,23076923077;4468,20512820513;4499,48717948718;3995,38461538462;4414,8717948718;4018,97435897436;4303,58974358974;4404,10256410256;4096,92307692308;4901,53846153846;1594;1741;74,944;17,9372901916504;0;0;0;0
61;0;0;4281,02564102564;4156,92307692308;4284,61538461538;4310,25641025641;4345,64102564103;4467,69230769231;4500,51282051282;3993,33333333333;4412,30769230769;4014,8717948718;4299,48717948718;4404,61538461538;4094,8717948718;4900,51282051282;1593;1740;74,952;17,9372901916504;0;0;0;0
62;0;0;4278,46153846154;4157,4358974359;4289,74358974359;4310,25641025641;4347,17948717949;4469,74358974359;4505,64102564103;3993,33333333333;4416,41025641026;4018,46153846154;4297,4358974359;4407,17948717949;4094,8717948718;4902,05128205128;1593;1741;74,961;17,9372901916504;0;0;0;0
63;0;0;4284,10256410256;4161,53846153846;4295,89743589744;4305,64102564103;4350,25641025641;4469,23076923077;4506,15384615385;3991,28205128205;4414,8717948718;4022,5641025641;4300;4409,74358974359;4096,41025641026;4906,66666666667;1594;1740;74,967;18,031120300293;0;0;0;0
64;0;466;4292,82051282051;4163,07692307692;4295,89743589744;4305,64102564103;4351,28205128205;4466,66666666667;4503,07692307692;3988,71794871795;4407,69230769231;4023,07692307692;4304,61538461538;4416,41025641026;4101,02564102564;4915,89743589744;1592;1741;74,976;18,031120300293;0;0;0;0
65;0;410;4300,51282051282;4165,12820512821;4296,92307692308;4313,33333333333;4352,82051282051;4463,58974358974;4504,10256410256;3988,71794871795;4409,23076923077;4032,30769230769;4309,74358974359;4422,05128205128;4109,23076923077;4924,10256410256;1593;1740;74,984;18,031120300293;0;0;0;0
66;0;497;4303,58974358974;4166,15384615385;4301,53846153846;4314,8717948718;4354,35897435897;4456,92307692308;4499,48717948718;3989,23076923077;4415,89743589744;4041,53846153846;4315,89743589744;4421,02564102564;4110,76923076923;4922,5641025641;1593;1740;74,991;18,031120300293;0;0;0;0
67;0;504;4300;4160,51282051282;4301,53846153846;4312,30769230769;4353,33333333333;4453,33333333333;4494,8717948718;3990,76923076923;4418,46153846154;4040,51282051282;4317,4358974359;4422,05128205128;4107,69230769231;4921,53846153846;1593;1741;74,999;18,031120300293;0;0;0;0
68;0;502;4298,97435897436;4158,46153846154;4297,4358974359;4311,79487179487;4353,84615384615;4460;4502,05128205128;3996,41025641026;4421,02564102564;4041,02564102564;4318,97435897436;4427,17948717949;4110,25641025641;4930,25641025641;1593;1741;75,006;18,031120300293;0;0;0;0
69;0;486;4302,5641025641;4166,15384615385;4298,46153846154;4311,28205128205;4356,41025641026;4462,05128205128;4505,64102564103;3996,41025641026;4420;4046,15384615385;4323,58974358974;4426,66666666667;4113,33333333333;4932,30769230769;1592;1740;75,015;18,031120300293;0;0;0;0
70;0;456;4297,4358974359;4168,20512820513;4302,5641025641;4313,33333333333;4358,46153846154;4461,02564102564;4501,53846153846;3993,84615384615;4420;4053,33333333333;4329,23076923077;4425,64102564103;4112,82051282051;4924,10256410256;1593;1740;75,022;18,031120300293;0;0;0;0
71;0;383;4285,64102564103;4163,58974358974;4297,4358974359;4316,41025641026;4357,94871794872;4462,05128205128;4505,64102564103;3997,4358974359;4424,10256410256;4059,48717948718;4332,30769230769;4427,69230769231;4111,79487179487;4923,07692307692;1593;1741;75,03;18,031120300293;0;0;0;0
72;0;383;4282,5641025641;4163,07692307692;4286,15384615385;4311,28205128205;4355,38461538462;4460,51282051282;4509,23076923077;3998,46153846154;4423,58974358974;4057,94871794872;4331,79487179487;4422,05128205128;4111,28205128205;4925,12820512821;1593;1739;75,038;18,031120300293;0;0;0;0
73;0;530;4287,69230769231;4165,12820512821;4281,53846153846;4303,07692307692;4355,38461538462;4457,94871794872;4505,12820512821;3993,84615384615;4418,46153846154;4049,74358974359;4326,15384615385;4415,89743589744;4107,69230769231;4920;1592;1740;75,045;18,031120300293;0;0;0;0
74;0;465;4285,64102564103;4165,12820512821;4285,12820512821;4304,61538461538;4355,89743589744;4456,92307692308;4502,05128205128;3992,30769230769;4417,94871794872;4042,5641025641;4320,51282051282;4416,92307692308;4103,07692307692;4913,84615384615;1593;1739;75,053;18,031120300293;0;0;0;0
75;0;452;4282,05128205128;4165,64102564103;4288,20512820513;4308,71794871795;4355,38461538462;4458,46153846154;4501,53846153846;3994,35897435898;4420;4040;4323,07692307692;4419,48717948718;4102,5641025641;4914,8717948718;1592;1740;75,061;18,031120300293;0;0;0;0
76;0;353;4287,69230769231;4166,66666666667;4286,66666666667;4310,76923076923;4357,94871794872;4460;4505,12820512821;3994,35897435898;4419,48717948718;4043,58974358974;4327,17948717949;4416,92307692308;4104,10256410256;4917,4358974359;1593;1740;75,069;18,031120300293;0;0;0;0
77;0;395;4286,15384615385;4164,61538461538;4283,07692307692;4312,30769230769;4360;4461,53846153846;4508,71794871795;3992,30769230769;4417,4358974359;4042,05128205128;4323,58974358974;4413,33333333333;4098,97435897436;4908,71794871795;1592;1739;75,078;18,031120300293;0;0;0;0
78;0;465;4276,92307692308;4165,12820512821;4286,15384615385;4310,76923076923;4356,92307692308;4463,58974358974;4508,20512820513;3994,35897435898;4417,4358974359;4034,35897435898;4317,94871794872;4413,33333333333;4091,79487179487;4898,97435897436;1593;1740;75,085;18,031120300293;0;0;0;0
79;0;452;4281,53846153846;4167,17948717949;4291,79487179487;4308,71794871795;4354,8717948718;4463,58974358974;4509,23076923077;3997,4358974359;4419,48717948718;4033,33333333333;4317,4358974359;4414,8717948718;4096,41025641026;4906,15384615385;1593;1739;75,093;18,156229019165;0;0;0;0
80;0;353;4294,35897435897;4164,10256410256;4295,38461538462;4311,79487179487;4356,92307692308;4460;4510,25641025641;3997,94871794872;4417,94871794872;4040;4320,51282051282;4416,92307692308;4105,12820512821;4914,8717948718;1594;1740;75,101;18,156229019165;0;0;0;0
81;0;395;4295,38461538462;4161,02564102564;4297,94871794872;4313,33333333333;4357,94871794872;4461,53846153846;4506,15384615385;3993,84615384615;4411,79487179487;4040,51282051282;4322,05128205128;4417,94871794872;4102,05128205128;4916,41025641026;1593;1739;75,108;18,156229019165;0;0;0;0
82;0;465;4294,35897435897;4158,97435897436;4301,02564102564;4306,66666666667;4355,89743589744;4464,10256410256;4504,10256410256;3988,20512820513;4408,71794871795;4035,89743589744;4316,92307692308;4417,94871794872;4096,92307692308;4919,48717948718;1594;1738;75,116;18,156229019165;0;0;0;0
83;0;452;4298,46153846154;4156,92307692308;4298,46153846154;4304,61538461538;4353,33333333333;4461,02564102564;4503,58974358974;3982,5641025641;4407,69230769231;4031,79487179487;4310,76923076923;4412,30769230769;4097,4358974359;4920,51282051282;1595;1736;75,124;18,156229019165;0;0;0;0
84;0;353;4298,46153846154;4156,41025641026;4296,92307692308;4307,69230769231;4353,33333333333;4461,02564102564;4502,05128205128;3979,48717948718;4407,69230769231;4030,25641025641;4311,79487179487;4408,20512820513;4102,5641025641;4918,97435897436;1594;1740;75,131;18,156229019165;0;0;0;0
